CTI3   

ORIGINATOR "Argyll dispread"
KEYWORD "USE_BLACK_POINT_COMPENSATION"
USE_BLACK_POINT_COMPENSATION "NO"
CREATED "Fri Sep 27 22:13:05 2013"
KEYWORD "TARGET_INSTRUMENT"
TARGET_INSTRUMENT "Xrite i1 DisplayPro, ColorMunki Display"
KEYWORD "DISPLAY_TYPE_REFRESH"
DISPLAY_TYPE_REFRESH "NO"
KEYWORD "COMP_GREY_STEPS"
COMP_GREY_STEPS "57"
KEYWORD "LUMINANCE_XYZ_CDM2"
LUMINANCE_XYZ_CDM2 "133.735403 140.756058 152.450127"
KEYWORD "VIDEO_LUT_CALIBRATION_POSSIBLE"
VIDEO_LUT_CALIBRATION_POSSIBLE "YES"
KEYWORD "SINGLE_DIM_STEPS"
SINGLE_DIM_STEPS "0"
DESCRIPTOR "Argyll Calibration Target chart information 3"

BEGIN_ARGYLL_COLPROF_ARGS
-v -qh -al -C "No copyright. Created with dispcalGUI 0.0.0.0 and Argyll CMS 1.6.0" -M "DELL U2713HM" -A "Dell"
END_ARGYLL_COLPROF_ARGS

KEYWORD "DEVICE_CLASS"
DEVICE_CLASS "DISPLAY"
KEYWORD "NORMALIZED_TO_Y_100"
NORMALIZED_TO_Y_100 "YES"
KEYWORD "DISPLAY_TYPE_BASE_ID"
DISPLAY_TYPE_BASE_ID "1"
KEYWORD "INSTRUMENT_TYPE_SPECTRAL"
INSTRUMENT_TYPE_SPECTRAL "NO"
KEYWORD "COLOR_REP"
COLOR_REP "RGB_XYZ"

NUMBER_OF_FIELDS 7
BEGIN_DATA_FORMAT
SAMPLE_ID RGB_R RGB_G RGB_B XYZ_X XYZ_Y XYZ_Z
END_DATA_FORMAT

NUMBER_OF_SETS 912
BEGIN_DATA
1 100.0000 100.0000 100.0000 95.01220 100.0000 108.3080
2 100.0000 100.0000 100.0000 95.01220 100.0000 108.3080
3 100.0000 100.0000 100.0000 95.01220 100.0000 108.3080
4 100.0000 100.0000 100.0000 95.01220 100.0000 108.3080
5 0.000000 0.000000 0.000000 0.117426 0.124480 0.193950
6 1.785700 1.785700 1.785700 0.175557 0.183877 0.255281
7 3.571400 3.571400 3.571400 0.265306 0.284610 0.360616
8 5.357100 5.357100 5.357100 0.444770 0.464978 0.547468
9 7.142900 7.142900 7.142900 0.631541 0.672355 0.734481
10 8.928600 8.928600 8.928600 0.893103 0.950885 1.071090
11 10.71400 10.71400 10.71400 1.109540 1.174300 1.315080
12 12.50000 12.50000 12.50000 1.426510 1.510990 1.702060
13 14.28600 14.28600 14.28600 1.736040 1.836400 2.068100
14 16.07100 16.07100 16.07100 2.129920 2.259420 2.484800
15 17.85700 17.85700 17.85700 2.623000 2.793470 3.015330
16 19.64300 19.64300 19.64300 2.970960 3.162020 3.412460
17 21.42900 21.42900 21.42900 3.587640 3.787480 4.139040
18 23.21400 23.21400 23.21400 4.075450 4.273320 4.650770
19 25.00000 25.00000 25.00000 4.794880 5.070400 5.538370
20 26.78600 26.78600 26.78600 5.362960 5.590330 6.138060
21 28.57100 28.57100 28.57100 6.194980 6.521640 7.217880
22 30.35700 30.35700 30.35700 6.932280 7.354990 7.919990
23 32.14300 32.14300 32.14300 7.842000 8.243950 8.821990
24 33.92900 33.92900 33.92900 8.757720 9.233870 10.09800
25 35.71400 35.71400 35.71400 9.705950 10.28300 10.96320
26 37.50000 37.50000 37.50000 10.81910 11.45460 12.46910
27 39.28600 39.28600 39.28600 11.89180 12.50140 13.45560
28 41.07100 41.07100 41.07100 13.39670 14.11330 15.14730
29 42.85700 42.85700 42.85700 14.33810 15.12720 16.19470
30 44.64300 44.64300 44.64300 15.91360 16.71190 18.04020
31 46.42900 46.42900 46.42900 17.15130 18.11720 19.39840
32 48.21400 48.21400 48.21400 18.57150 19.70450 20.98420
33 50.00000 50.00000 50.00000 20.24340 21.36570 22.87790
34 51.78600 51.78600 51.78600 21.76910 22.89740 24.60130
35 53.57100 53.57100 53.57100 23.35920 24.66630 26.35510
36 55.35700 55.35700 55.35700 24.94420 26.43500 28.08490
37 57.14300 57.14300 57.14300 26.96880 28.40840 30.48890
38 58.92900 58.92900 58.92900 28.68640 30.24740 31.96370
39 60.71400 60.71400 60.71400 30.74970 32.51600 34.63700
40 62.50000 62.50000 62.50000 32.62150 34.27890 36.77350
41 64.28600 64.28600 64.28600 34.83580 36.88290 39.18490
42 66.07100 66.07100 66.07100 36.71540 38.54310 41.58550
43 67.85700 67.85700 67.85700 39.42540 41.42700 44.52870
44 69.64300 69.64300 69.64300 41.71580 43.97460 46.93890
45 71.42900 71.42900 71.42900 43.78510 46.26540 49.34700
46 73.21400 73.21400 73.21400 46.52930 49.17240 52.15750
47 75.00000 75.00000 75.00000 48.58190 51.14660 54.69410
48 76.78600 76.78600 76.78600 51.38610 54.00400 57.90190
49 78.57100 78.57100 78.57100 54.11840 57.02830 61.37780
50 80.35700 80.35700 80.35700 57.03090 59.94040 64.98390
51 82.14300 82.14300 82.14300 59.57200 62.62070 68.05810
52 83.92900 83.92900 83.92900 63.20440 66.62820 72.20570
53 85.71400 85.71400 85.71400 66.65920 70.04950 75.81540
54 87.50000 87.50000 87.50000 69.34110 72.93250 78.62600
55 89.28600 89.28600 89.28600 72.89100 76.81250 82.90510
56 91.07100 91.07100 91.07100 75.47020 79.46450 85.97870
57 92.85700 92.85700 92.85700 78.81900 83.02960 89.98920
58 94.64300 94.64300 94.64300 82.34240 86.65880 93.46870
59 96.42900 96.42900 96.42900 86.80380 91.20630 98.68050
60 98.21400 98.21400 98.21400 90.73950 95.56120 103.7600
61 0.000000 0.000000 14.28570 0.420411 0.222888 1.907440
62 0.000000 0.000000 28.57140 1.253780 0.494922 6.620020
63 0.000000 0.000000 42.85710 2.699700 0.967662 14.79500
64 0.000000 0.000000 57.14290 5.009800 1.726800 27.86840
65 0.000000 0.000000 71.42860 8.062510 2.720750 45.11960
66 0.000000 0.000000 85.71430 12.35650 4.116930 69.40390
67 0.000000 0.000000 100.0000 17.60060 5.757950 98.99540
68 0.000000 14.28570 0.000000 0.712595 1.378680 0.341503
69 0.000000 14.28570 14.28570 1.016210 1.477690 2.056880
70 0.000000 14.28570 28.57140 1.850020 1.750180 6.772700
71 0.000000 14.28570 42.85710 3.297580 2.223030 14.95330
72 0.000000 14.28570 57.14290 5.604400 2.982370 28.01470
73 0.000000 14.28570 71.42860 8.658080 3.975860 45.26580
74 0.000000 14.28570 85.71430 12.95320 5.372780 69.55010
75 0.000000 14.28570 100.0000 18.19900 7.017390 99.14160
76 0.000000 28.57140 0.000000 2.331420 4.790220 0.745593
77 0.000000 28.57140 14.28570 2.637670 4.892200 2.460800
78 0.000000 28.57140 28.57140 3.471050 5.163410 7.172900
79 0.000000 28.57140 42.85710 4.917210 5.636940 15.34980
80 0.000000 28.57140 57.14290 7.232650 6.394440 28.44950
81 0.000000 28.57140 71.42860 10.28670 7.392080 45.70070
82 0.000000 28.57140 85.71430 14.57590 8.785620 69.98500
83 0.000000 28.57140 100.0000 19.83540 10.43740 99.57650
84 0.000000 42.85710 0.000000 5.311740 11.07880 1.491660
85 0.000000 42.85710 14.28570 5.598360 11.14650 3.206680
86 0.000000 42.85710 28.57140 6.452340 11.42290 7.916470
87 0.000000 42.85710 42.85710 7.873220 11.91550 16.09310
88 0.000000 42.85710 57.14290 10.16650 12.63360 29.18040
89 0.000000 42.85710 71.42860 13.26050 13.64850 46.43160
90 0.000000 42.85710 85.71430 17.54760 15.06810 70.71620
91 0.000000 42.85710 100.0000 22.79100 16.71580 100.3080
92 0.000000 57.14290 0.000000 9.876740 20.69390 2.635450
93 0.000000 57.14290 14.28570 10.18730 20.81380 4.350030
94 0.000000 57.14290 28.57140 11.04050 21.09020 9.056170
95 0.000000 57.14290 42.85710 12.49810 21.55450 17.22600
96 0.000000 57.14290 57.14290 14.76020 22.30100 30.34610
97 0.000000 57.14290 71.42860 17.82620 23.31510 47.46470
98 0.000000 57.14290 85.71430 22.17930 24.70730 71.88140
99 0.000000 57.14290 100.0000 27.35660 26.38240 101.3410
100 0.000000 71.42860 0.000000 16.10210 33.83680 4.194260
101 0.000000 71.42860 14.28570 16.41290 33.95670 5.909870
102 0.000000 71.42860 28.57140 17.26660 34.23320 10.61850
103 0.000000 71.42860 42.85710 18.72440 34.69740 18.78910
104 0.000000 71.42860 57.14290 21.00450 35.41510 31.81430
105 0.000000 71.42860 71.42860 24.09850 36.43010 49.06550
106 0.000000 71.42860 85.71430 28.32340 37.82570 73.35020
107 0.000000 71.42860 100.0000 33.62900 39.49730 102.9420
108 0.000000 85.71430 0.000000 24.26940 51.08220 6.249750
109 0.000000 85.71430 14.28570 24.61850 51.17390 7.965740
110 0.000000 85.71430 28.57140 25.47250 51.45030 12.67570
111 0.000000 85.71430 42.85710 26.89080 51.94280 20.84040
112 0.000000 85.71430 57.14290 29.19750 52.66130 33.99060
113 0.000000 85.71430 71.42860 32.26340 53.67540 51.10920
114 0.000000 85.71430 85.71430 36.52630 55.04270 75.39330
115 0.000000 85.71430 100.0000 41.83190 56.71440 104.9850
116 0.000000 100.0000 0.000000 34.60800 72.98110 8.928990
117 0.000000 100.0000 14.28570 34.91940 73.10100 10.64740
118 0.000000 100.0000 28.57140 35.71370 73.35360 15.36920
119 0.000000 100.0000 42.85710 37.17230 73.81780 23.54390
120 0.000000 100.0000 57.14290 39.48650 74.58810 36.61610
121 0.000000 100.0000 71.42860 42.55630 75.55080 53.86680
122 0.000000 100.0000 85.71430 46.88140 76.94210 78.15080
123 0.000000 100.0000 100.0000 52.09680 78.58900 107.6100
124 7.142860 7.142860 21.42860 1.183100 0.851735 3.849920
125 7.142860 7.142860 35.71430 2.282510 1.211290 10.06730
126 7.142860 7.142860 50.00000 4.197530 1.836450 20.93440
127 7.142860 7.142860 64.28570 6.837020 2.704920 35.83510
128 7.142860 7.142860 78.57140 10.43090 3.871780 56.13830
129 7.142860 7.142860 92.85710 15.08160 5.368940 82.41290
130 7.142860 21.42860 7.142860 1.713200 2.950340 1.003160
131 7.142860 21.42860 21.42860 2.267660 3.127240 4.119880
132 7.142860 21.42860 35.71430 3.366260 3.491030 10.34540
133 7.142860 21.42860 50.00000 5.284520 4.116730 21.20330
134 7.142860 21.42860 64.28570 7.923870 4.984280 36.12500
135 7.142860 21.42860 78.57140 11.50460 6.148750 56.42830
136 7.142860 21.42860 92.85710 16.15340 7.644120 82.70290
137 7.142860 35.71430 7.142860 3.973470 7.706830 1.566220
138 7.142860 35.71430 21.42860 4.526400 7.891310 4.686170
139 7.142860 35.71430 35.71430 5.610990 8.237630 10.88940
140 7.142860 35.71430 50.00000 7.546070 8.871500 21.77760
141 7.142860 35.71430 64.28570 10.20300 9.729870 36.70680
142 7.142860 35.71430 78.57140 13.81620 10.88010 57.00970
143 7.142860 35.71430 92.85710 18.44240 12.40990 83.28490
144 7.142860 50.00000 7.142860 7.794500 15.77850 2.525470
145 7.142860 50.00000 21.42860 8.364310 15.93590 5.645350
146 7.142860 50.00000 35.71430 9.423660 16.30700 11.86660
147 7.142860 50.00000 50.00000 11.36500 16.92590 22.74970
148 7.142860 50.00000 64.28570 14.06730 17.78900 37.72230
149 7.142860 50.00000 78.57140 17.58830 18.96430 57.89330
150 7.142860 50.00000 92.85710 22.22020 20.45330 84.16800
151 7.142860 64.28570 7.142860 13.22130 27.16960 3.879370
152 7.142860 64.28570 21.42860 13.81470 27.37910 6.997070
153 7.142860 64.28570 35.71430 14.91070 27.72190 13.21090
154 7.142860 64.28570 50.00000 16.78580 28.31670 24.07520
155 7.142860 64.28570 64.28570 19.44820 29.20800 39.03990
156 7.142860 64.28570 78.57140 23.00730 30.35500 59.21030
157 7.142860 64.28570 92.85710 27.66340 31.89630 85.48550
158 7.142860 78.57140 7.142860 20.15740 41.77500 5.616130
159 7.142860 78.57140 21.42860 20.75070 41.98460 8.733430
160 7.142860 78.57140 35.71430 21.84810 42.32740 14.95400
161 7.142860 78.57140 50.00000 23.78650 42.94620 25.82300
162 7.142860 78.57140 64.28570 26.38710 43.81360 40.78960
163 7.142860 78.57140 78.57140 29.94620 44.96060 60.96000
164 7.142860 78.57140 92.85710 34.64030 46.47360 87.23460
165 7.142860 92.85710 7.142860 29.12680 60.77250 7.893140
166 7.142860 92.85710 21.42860 29.72170 60.98200 11.01780
167 7.142860 92.85710 35.71430 30.81920 61.32490 17.23910
168 7.142860 92.85710 50.00000 32.67030 61.91900 27.98960
169 7.142860 92.85710 64.28570 35.37730 62.78220 42.98450
170 7.142860 92.85710 78.57140 38.96440 63.93010 63.28760
171 7.142860 92.85710 92.85710 43.53020 65.44660 89.43020
172 14.28570 0.000000 0.000000 0.836567 0.482236 0.202390
173 14.28570 0.000000 14.28570 1.140110 0.580447 1.916990
174 14.28570 0.000000 28.57140 1.973800 0.853151 6.631430
175 14.28570 0.000000 42.85710 3.419700 1.325920 14.80520
176 14.28570 0.000000 57.14290 5.727890 2.085060 27.86900
177 14.28570 0.000000 71.42860 8.781170 3.077830 45.12020
178 14.28570 0.000000 85.71430 13.07730 4.472740 69.40440
179 14.28570 0.000000 100.0000 18.32410 6.113870 98.99590
180 14.28570 14.28570 0.000000 1.433300 1.734600 0.350446
181 14.28570 14.28570 28.57140 2.571160 2.109300 6.784790
182 14.28570 14.28570 42.85710 4.018210 2.581980 14.96320
183 14.28570 14.28570 57.14290 6.323270 3.341000 28.01530
184 14.28570 14.28570 71.42860 9.376980 4.334330 45.26640
185 14.28570 14.28570 85.71430 13.67430 5.731350 69.55070
186 14.28570 14.28570 100.0000 18.92090 7.375060 99.14220
187 14.28570 28.57140 0.000000 3.052710 5.148160 0.754508
188 14.28570 28.57140 14.28570 3.356910 5.251350 2.471260
189 14.28570 28.57140 28.57140 4.193650 5.524670 7.187410
190 14.28570 28.57140 42.85710 5.639560 5.997570 15.36430
191 14.28570 28.57140 57.14290 7.950830 6.755880 28.45010
192 14.28570 28.57140 71.42860 11.01640 7.747710 45.70120
193 14.28570 28.57140 85.71430 15.30450 9.148940 69.98560
194 14.28570 28.57140 100.0000 20.52760 10.79970 99.44460
195 14.28570 42.85710 0.000000 6.021850 11.39450 1.499830
196 14.28570 42.85710 14.28570 6.332880 11.51450 3.216590
197 14.28570 42.85710 28.57140 7.187610 11.79090 7.929900
198 14.28570 42.85710 42.85710 8.607540 12.28340 16.10210
199 14.28570 42.85710 57.14290 10.96130 13.02550 29.18100
200 14.28570 42.85710 71.42860 13.99310 14.01640 46.43220
201 14.28570 42.85710 85.71430 18.28020 15.43600 70.71690
202 14.28570 42.85710 100.0000 23.52350 17.08370 100.3080
203 14.28570 57.14290 0.000000 10.61080 21.06180 2.643030
204 14.28570 57.14290 14.28570 10.92190 21.18180 4.360440
205 14.28570 57.14290 28.57140 11.77660 21.45820 9.073370
206 14.28570 57.14290 42.85710 13.23430 21.92250 17.24390
207 14.28570 57.14290 57.14290 15.49280 22.66890 30.34670
208 14.28570 57.14290 71.42860 18.58680 23.68390 47.59790
209 14.28570 57.14290 85.71430 22.84970 25.05120 71.88200
210 14.28570 57.14290 100.0000 28.08920 26.75030 101.3420
211 14.28570 71.42860 0.000000 16.87090 34.17640 4.185680
212 14.28570 71.42860 14.28570 17.18530 34.29640 5.918380
213 14.28570 71.42860 28.57140 17.97820 34.54900 10.63370
214 14.28570 71.42860 42.85710 19.39810 35.04150 18.80570
215 14.28570 71.42860 57.14290 21.76520 35.78390 31.94750
216 14.28570 71.42860 71.42860 24.76890 36.77400 49.06610
217 14.28570 71.42860 85.71430 29.05600 38.19360 73.35080
218 14.28570 71.42860 100.0000 34.36160 39.86520 102.9420
219 14.28570 85.71430 0.000000 25.04120 51.42190 6.255440
220 14.28570 85.71430 14.28570 25.35270 51.54180 7.974430
221 14.28570 85.71430 28.57140 26.14600 51.79440 12.69100
222 14.28570 85.71430 42.85710 27.60280 52.25860 20.85700
223 14.28570 85.71430 57.14290 29.93000 53.02920 33.99120
224 14.28570 85.71430 71.42860 32.93380 54.01930 51.10990
225 14.28570 85.71430 85.71430 37.25890 55.41070 75.39390
226 14.28570 85.71430 100.0000 42.50230 57.05840 104.9850
227 14.28570 100.0000 0.000000 35.34180 73.34900 8.935400
228 14.28570 100.0000 14.28570 35.62980 73.41680 10.65720
229 14.28570 100.0000 28.57140 36.48750 73.69330 15.38430
230 14.28570 100.0000 42.85710 37.90950 74.18590 23.56630
231 14.28570 100.0000 57.14290 40.25710 74.92770 36.61620
232 14.28570 100.0000 71.42860 43.28890 75.91870 53.86740
233 14.28570 100.0000 85.71430 47.55180 77.28610 78.15150
234 14.28570 100.0000 100.0000 52.76710 78.93290 107.6100
235 21.42860 7.142860 7.142860 1.956590 1.331660 0.750331
236 21.42860 7.142860 21.42860 2.507090 1.511150 3.867320
237 21.42860 7.142860 35.71430 3.609420 1.871630 10.09280
238 21.42860 7.142860 50.00000 5.530280 2.499530 20.96080
239 21.42860 7.142860 64.28570 8.158800 3.365250 35.83610
240 21.42860 7.142860 78.57140 11.75390 4.533280 56.13940
241 21.42860 7.142860 92.85710 16.40770 6.028370 82.41400
242 21.42860 21.42860 7.142860 3.036850 3.608190 1.019890
243 21.42860 21.42860 35.71430 4.690960 4.149760 10.36270
244 21.42860 21.42860 50.00000 6.607340 4.772970 21.22350
245 21.42860 21.42860 64.28570 9.242300 5.640090 36.12600
246 21.42860 21.42860 78.57140 12.84020 6.813010 56.42930
247 21.42860 21.42860 92.85710 17.49060 8.307300 82.70390
248 21.42860 35.71430 7.142860 5.298120 8.367420 1.583960
249 21.42860 35.71430 21.42860 5.849410 8.548330 4.701330
250 21.42860 35.71430 35.71430 6.948730 8.906160 10.92220
251 21.42860 35.71430 50.00000 8.866620 9.527060 21.78750
252 21.42860 35.71430 64.28570 11.50480 10.39510 36.70800
253 21.42860 35.71430 78.57140 15.12520 11.55580 57.01100
254 21.42860 35.71430 92.85710 19.74810 13.04140 83.28570
255 21.42860 50.00000 7.142860 9.114140 16.41440 2.540860
256 21.42860 50.00000 21.42860 9.644810 16.59990 5.656200
257 21.42860 50.00000 35.71430 10.74300 16.94280 11.88050
258 21.42860 50.00000 50.00000 12.68130 17.56160 22.74940
259 21.42860 50.00000 64.28570 15.34580 18.45300 37.72370
260 21.42860 50.00000 78.57140 18.90490 19.60000 57.89410
261 21.42860 50.00000 92.85710 23.59900 21.11300 84.16870
262 21.42860 64.28570 7.142860 14.56530 27.85760 3.896220
263 21.42860 64.28570 21.42860 15.13440 28.01490 7.012480
264 21.42860 64.28570 35.71430 16.19400 28.38600 13.23520
265 21.42860 64.28570 50.00000 18.13120 29.00480 24.09860
266 21.42860 64.28570 64.28570 20.76480 29.84370 39.04060
267 21.42860 64.28570 78.57140 24.37610 31.04380 59.34420
268 21.42860 64.28570 92.85710 28.97990 32.53200 85.48620
269 21.42860 78.57140 7.142860 21.50140 42.46310 5.633070
270 21.42860 78.57140 21.42860 22.06980 42.62040 8.746350
271 21.42860 78.57140 35.71430 23.13120 42.99150 14.97690
272 21.42860 78.57140 50.00000 25.06800 43.61030 25.83890
273 21.42860 78.57140 64.28570 27.70360 44.44930 40.79040
274 21.42860 78.57140 78.57140 31.28690 45.64850 60.96140
275 21.42860 78.57140 92.85710 35.91880 47.13760 87.23600
276 21.42860 92.85710 7.142860 30.47130 61.46050 7.912530
277 21.42860 92.85710 21.42860 31.04150 61.61790 11.03420
278 21.42860 92.85710 35.71430 32.14050 61.96070 17.26230
279 21.42860 92.85710 50.00000 34.03910 62.60780 28.12350
280 21.42860 92.85710 64.28570 36.71800 63.47010 42.98590
281 21.42860 92.85710 78.57140 40.30520 64.61800 63.28890
282 21.42860 92.85710 92.85710 44.93700 66.10710 89.56350
283 28.57140 0.000000 0.000000 2.837730 1.478460 0.228083
284 28.57140 0.000000 14.28570 3.141300 1.577240 1.943750
285 28.57140 0.000000 28.57140 3.973270 1.849370 6.646720
286 28.57140 0.000000 42.85710 5.416960 2.320580 14.83320
287 28.57140 0.000000 57.14290 7.722640 3.080830 27.87060
288 28.57140 0.000000 71.42860 10.77710 4.074440 45.12180
289 28.57140 0.000000 85.71430 15.07320 5.469730 69.40610
290 28.57140 0.000000 100.0000 20.32600 7.114140 98.99750
291 28.57140 14.28570 0.000000 3.431420 2.732030 0.376328
292 28.57140 14.28570 14.28570 3.740940 2.834560 2.093060
293 28.57140 14.28570 28.57140 4.575480 3.107240 6.810430
294 28.57140 14.28570 42.85710 6.022180 3.580420 14.98840
295 28.57140 14.28570 57.14290 8.349500 4.340230 28.14950
296 28.57140 14.28570 71.42860 11.37730 5.333960 45.26800
297 28.57140 14.28570 85.71430 15.66880 6.727150 69.55230
298 28.57140 14.28570 100.0000 20.92720 8.377080 99.14380
299 28.57140 28.57140 0.000000 5.052980 6.143230 0.780044
300 28.57140 28.57140 14.28570 5.357730 6.247550 2.497710
301 28.57140 28.57140 42.85710 7.641620 6.992990 15.39110
302 28.57140 28.57140 57.14290 9.949320 7.752480 28.45170
303 28.57140 28.57140 71.42860 13.00600 8.749100 45.70290
304 28.57140 28.57140 85.71430 17.31160 10.13730 69.98700
305 28.57140 28.57140 100.0000 22.56940 11.79050 99.57860
306 28.57140 42.85710 0.000000 8.037960 12.42660 1.525690
307 28.57140 42.85710 14.28570 8.324970 12.49430 3.242560
308 28.57140 42.85710 28.57140 9.141850 12.79900 7.957400
309 28.57140 42.85710 42.85710 10.60000 13.26330 16.13000
310 28.57140 42.85710 57.14290 12.91020 14.03340 29.18300
311 28.57140 42.85710 71.42860 15.94200 15.02440 46.43430
312 28.57140 42.85710 85.71430 20.26710 16.41570 70.71830
313 28.57140 42.85710 100.0000 25.57270 18.08730 100.3100
314 28.57140 57.14290 0.000000 12.60310 22.04170 2.670060
315 28.57140 57.14290 14.28570 12.91430 22.16160 4.387660
316 28.57140 57.14290 28.57140 13.76920 22.43810 9.101880
317 28.57140 57.14290 42.85710 15.19110 22.93070 17.28320
318 28.57140 57.14290 57.14290 17.54190 23.67260 30.34810
319 28.57140 57.14290 71.42860 20.57370 24.66360 47.59940
320 28.57140 57.14290 85.71430 24.86080 26.08310 71.88400
321 28.57140 57.14290 100.0000 30.16630 27.75480 101.4760
322 28.57140 71.42860 0.000000 18.82830 35.18460 4.228400
323 28.57140 71.42860 14.28570 19.13980 35.30450 5.947560
324 28.57140 71.42860 28.57140 19.99520 35.58100 10.66370
325 28.57140 71.42860 42.85710 21.45400 36.04530 18.83910
326 28.57140 71.42860 57.14290 23.77620 36.81580 31.94950
327 28.57140 71.42860 71.42860 26.78000 37.80590 49.06810
328 28.57140 71.42860 85.71430 31.13310 39.19810 73.48480
329 28.57140 71.42860 100.0000 36.34850 40.84490 102.9440
330 28.57140 85.71430 0.000000 27.05820 52.45400 6.285140
331 28.57140 85.71430 14.28570 27.34540 52.52170 8.003240
332 28.57140 85.71430 28.57140 28.16230 52.82640 12.71820
333 28.57140 85.71430 42.85710 29.62190 53.29070 20.89720
334 28.57140 85.71430 57.14290 31.94110 54.06110 33.99320
335 28.57140 85.71430 71.42860 35.01090 55.02380 51.24380
336 28.57140 85.71430 85.71430 39.23580 56.41940 75.52860
337 28.57140 85.71430 100.0000 44.51330 58.09020 104.9870
338 28.57140 100.0000 0.000000 37.39640 74.35280 8.963000
339 28.57140 100.0000 14.28570 37.64670 74.44880 10.68670
340 28.57140 100.0000 28.57140 38.50440 74.72540 15.41430
341 28.57140 100.0000 42.85710 39.96590 75.18980 23.60210
342 28.57140 100.0000 57.14290 42.23400 75.93650 36.75080
343 28.57140 100.0000 71.42860 45.29990 76.95060 53.86940
344 28.57140 100.0000 85.71430 49.56290 78.31790 78.15350
345 28.57140 100.0000 100.0000 54.84430 79.93740 107.7440
346 35.71430 7.142860 7.142860 4.762320 2.728660 0.786687
347 35.71430 7.142860 21.42860 5.317170 2.910520 3.906850
348 35.71430 7.142860 35.71430 6.413120 3.267590 10.12540
349 35.71430 7.142860 50.00000 8.334580 3.895350 20.99990
350 35.71430 7.142860 64.28570 10.98540 4.763680 35.97100
351 35.71430 7.142860 78.57140 14.55180 5.929720 56.14170
352 35.71430 7.142860 92.85710 19.21060 7.429340 82.41630
353 35.71430 21.42860 7.142860 5.845890 5.007850 1.056870
354 35.71430 21.42860 21.42860 6.399310 5.189280 4.176150
355 35.71430 21.42860 35.71430 7.500510 5.549900 10.40170
356 35.71430 21.42860 50.00000 9.418610 6.174600 21.27580
357 35.71430 21.42860 64.28570 12.07140 7.042420 36.26090
358 35.71430 21.42860 78.57140 15.64200 8.213790 56.43160
359 35.71430 21.42860 92.85710 20.29440 9.709890 82.70620
360 35.71430 35.71430 7.142860 8.079110 9.752550 1.620090
361 35.71430 35.71430 21.42860 8.614090 9.932550 4.720820
362 35.71430 35.71430 50.00000 11.63460 10.90900 21.83180
363 35.71430 35.71430 64.28570 14.31070 11.77600 36.71000
364 35.71430 35.71430 78.57140 17.89790 12.92390 57.01310
365 35.71430 35.71430 92.85710 22.55390 14.46520 83.28820
366 35.71430 50.00000 7.142860 11.92750 17.83830 2.579190
367 35.71430 50.00000 21.42860 12.49680 17.99570 5.696720
368 35.71430 50.00000 35.71430 13.59360 18.33850 11.91460
369 35.71430 50.00000 50.00000 15.49600 18.98570 22.79360
370 35.71430 50.00000 64.28570 18.12740 19.82450 37.72570
371 35.71430 50.00000 78.57140 21.73880 21.02460 58.02930
372 35.71430 50.00000 92.85710 26.37060 22.51370 84.30390
373 35.71430 64.28570 7.142860 17.35450 29.22940 3.933940
374 35.71430 64.28570 21.42860 17.94700 29.43890 7.047410
375 35.71430 64.28570 35.71430 19.04540 29.78170 13.27260
376 35.71430 64.28570 50.00000 20.88480 30.40490 24.14850
377 35.71430 64.28570 64.28570 23.57060 31.26750 39.04320
378 35.71430 64.28570 78.57140 27.18190 32.46760 59.34680
379 35.71430 64.28570 92.85710 31.81380 33.95660 85.62140
380 35.71430 78.57140 7.142860 24.29050 43.83480 5.670310
381 35.71430 78.57140 21.42860 24.88480 44.04440 8.792160
382 35.71430 78.57140 35.71430 25.94540 44.41550 15.01940
383 35.71430 78.57140 50.00000 27.88510 45.03440 25.89440
384 35.71430 78.57140 64.28570 30.50940 45.87310 40.79290
385 35.71430 78.57140 78.57140 34.12080 47.07310 61.09650
386 35.71430 78.57140 92.85710 38.75260 48.56220 87.37110
387 35.71430 92.85710 7.142860 33.32320 62.85620 7.952040
388 35.71430 92.85710 21.42860 33.85530 63.04190 11.07430
389 35.71430 92.85710 35.71430 34.95370 63.38470 17.29960
390 35.71430 92.85710 50.00000 36.88290 64.00330 28.12550
391 35.71430 92.85710 64.28570 39.55180 64.89480 43.12100
392 35.71430 92.85710 78.57140 43.11100 66.04180 63.29150
393 35.71430 92.85710 92.85710 47.74280 67.53090 89.56610
394 42.85710 0.000000 0.000000 6.550130 3.326620 0.275941
395 42.85710 0.000000 14.28570 6.855030 3.426370 1.993030
396 42.85710 0.000000 28.57140 7.685500 3.698080 6.696120
397 42.85710 0.000000 42.85710 9.133430 4.170220 14.88350
398 42.85710 0.000000 57.14290 11.45270 4.930500 28.00620
399 42.85710 0.000000 71.42860 14.50790 5.924350 45.25740
400 42.85710 0.000000 85.71430 18.80550 7.321110 69.54170
401 42.85710 0.000000 100.0000 24.05970 8.968040 99.13310
402 42.85710 14.28570 0.000000 7.148980 4.583520 0.424265
403 42.85710 14.28570 14.28570 7.458290 4.685860 2.142610
404 42.85710 14.28570 28.57140 8.294920 4.959340 6.863340
405 42.85710 14.28570 42.85710 9.740430 5.431840 15.04680
406 42.85710 14.28570 57.14290 12.05750 6.193010 28.15250
407 42.85710 14.28570 71.42860 15.11310 7.187720 45.40360
408 42.85710 14.28570 85.71430 19.41050 8.584080 69.68790
409 42.85710 14.28570 100.0000 24.66650 10.23490 99.27950
410 42.85710 28.57140 0.000000 8.766830 7.995220 0.828550
411 42.85710 28.57140 14.28570 9.027090 8.083150 2.547990
412 42.85710 28.57140 28.57140 9.880170 8.361590 7.265960
413 42.85710 28.57140 42.85710 11.32870 8.834770 15.44910
414 42.85710 28.57140 57.14290 13.66300 9.600820 28.58740
415 42.85710 28.57140 71.42860 16.66960 10.58890 45.70600
416 42.85710 28.57140 85.71430 21.01870 11.98400 70.12270
417 42.85710 28.57140 100.0000 26.26210 13.63170 99.71430
418 42.85710 42.85710 0.000000 11.71040 14.26650 1.574530
419 42.85710 42.85710 14.28570 12.06010 14.35810 3.293480
420 42.85710 42.85710 28.57140 12.91570 14.63460 8.010830
421 42.85710 42.85710 57.14290 16.66320 15.89780 29.31870
422 42.85710 42.85710 71.42860 19.66690 16.88790 46.43730
423 42.85710 42.85710 85.71430 24.02010 18.28010 70.85400
424 42.85710 42.85710 100.0000 29.26350 19.92780 100.4460
425 42.85710 57.14290 0.000000 16.33760 23.90550 2.718170
426 42.85710 57.14290 14.28570 16.64970 24.02550 4.439780
427 42.85710 57.14290 28.57140 17.50570 24.30200 9.159080
428 42.85710 57.14290 42.85710 18.92740 24.79450 17.33980
429 42.85710 57.14290 57.14290 21.25690 25.56520 30.48440
430 42.85710 57.14290 71.42860 24.26060 26.55530 47.60310
431 42.85710 57.14290 85.71430 28.61380 27.94750 72.01970
432 42.85710 57.14290 100.0000 33.89130 29.61830 101.4790
433 42.85710 71.42860 0.000000 22.56340 37.04850 4.279400
434 42.85710 71.42860 14.28570 22.87520 37.16840 5.999820
435 42.85710 71.42860 28.57140 23.73130 37.44490 10.71960
436 42.85710 71.42860 42.85710 25.19110 37.90920 18.89960
437 42.85710 71.42860 57.14290 27.50120 38.67930 31.95250
438 42.85710 71.42860 71.42860 30.53300 39.67030 49.20380
439 42.85710 71.42860 85.71430 34.85810 41.06160 73.48780
440 42.85710 71.42860 100.0000 40.06350 42.73760 103.0800
441 42.85710 85.71430 0.000000 30.73090 54.29390 6.335060
442 42.85710 85.71430 14.28570 31.04310 54.41380 8.057610
443 42.85710 85.71430 28.57140 31.89840 54.69030 12.77370
444 42.85710 85.71430 42.85710 33.35950 55.15470 20.96010
445 42.85710 85.71430 57.14290 35.69410 55.92550 34.12890
446 42.85710 85.71430 71.42860 38.69790 56.91560 51.24750
447 42.85710 85.71430 85.71430 43.02300 58.30690 75.53160
448 42.85710 85.71430 100.0000 48.26640 59.95470 105.1230
449 42.85710 100.0000 0.000000 41.09390 76.24490 9.016350
450 42.85710 100.0000 14.28570 41.44470 76.33670 10.74070
451 42.85710 100.0000 28.57140 42.20240 76.61750 15.47000
452 42.85710 100.0000 42.85710 43.70380 77.05370 23.66620
453 42.85710 100.0000 57.14290 46.02120 77.82400 36.75380
454 42.85710 100.0000 71.42860 49.05300 78.81500 54.00510
455 42.85710 100.0000 85.71430 53.37810 80.20630 78.28910
456 42.85710 100.0000 100.0000 58.59340 81.85320 107.7480
457 50.00000 7.142860 7.142860 9.541990 5.109000 0.846538
458 50.00000 7.142860 21.42860 10.09530 5.289130 3.974130
459 50.00000 7.142860 35.71430 11.19360 5.648080 10.20210
460 50.00000 7.142860 50.00000 13.11680 6.275550 21.09230
461 50.00000 7.142860 64.28570 15.74870 7.143690 35.97490
462 50.00000 7.142860 78.57140 19.34230 8.311890 56.27810
463 50.00000 7.142860 92.85710 23.97120 9.798320 82.55270
464 50.00000 21.42860 7.142860 10.60560 7.382370 1.119650
465 50.00000 21.42860 21.42860 11.15010 7.558570 4.240120
466 50.00000 21.42860 35.71430 12.23470 7.912640 10.47180
467 50.00000 21.42860 50.00000 14.16300 8.541020 21.35340
468 50.00000 21.42860 64.28570 16.83040 9.419900 36.26480
469 50.00000 21.42860 78.57140 20.39830 10.58210 56.56810
470 50.00000 21.42860 92.85710 25.03980 12.06400 82.84260
471 50.00000 35.71430 7.142860 12.82720 12.12890 1.684370
472 50.00000 35.71430 21.42860 13.43280 12.32990 4.805590
473 50.00000 35.71430 35.71430 14.52220 12.67890 11.02820
474 50.00000 35.71430 50.00000 16.47020 13.28910 21.88720
475 50.00000 35.71430 64.28570 19.06930 14.15640 36.84670
476 50.00000 35.71430 78.57140 22.71870 15.32820 57.14970
477 50.00000 35.71430 92.85710 27.35060 16.81730 83.42430
478 50.00000 50.00000 7.142860 16.70860 20.19000 2.641940
479 50.00000 50.00000 21.42860 17.24050 20.37560 5.762930
480 50.00000 50.00000 35.71430 18.33880 20.71840 11.98790
481 50.00000 50.00000 64.28570 22.94820 22.22880 37.86230
482 50.00000 50.00000 78.57140 26.46930 23.40410 58.03340
483 50.00000 50.00000 92.85710 31.10110 24.89320 84.30800
484 50.00000 64.28570 7.142860 22.16020 31.63320 3.999170
485 50.00000 64.28570 21.42860 22.69300 31.81880 7.124590
486 50.00000 64.28570 35.71430 23.79200 32.16170 13.35280
487 50.00000 64.28570 50.00000 25.69440 32.80890 24.23230
488 50.00000 64.28570 64.28570 28.39130 33.67180 39.17980
489 50.00000 64.28570 78.57140 31.97850 34.81970 59.48280
490 50.00000 64.28570 92.85710 36.60650 36.36010 85.62540
491 50.00000 78.57140 7.142860 29.05850 46.26690 5.737650
492 50.00000 78.57140 21.42860 29.69080 46.44820 8.858680
493 50.00000 78.57140 35.71430 30.75340 46.81940 15.09530
494 50.00000 78.57140 50.00000 32.63220 47.41440 25.97710
495 50.00000 78.57140 64.28570 35.33020 48.27730 40.92950
496 50.00000 78.57140 78.57140 38.87930 49.45350 61.23320
497 50.00000 78.57140 92.85710 43.48320 50.94170 87.37520
498 50.00000 92.85710 7.142860 38.12870 65.26010 8.016770
499 50.00000 92.85710 21.42860 38.66190 65.44570 11.14420
500 50.00000 92.85710 35.71430 39.72310 65.81680 17.37410
501 50.00000 92.85710 50.00000 41.60350 66.41190 28.26280
502 50.00000 92.85710 64.28570 44.28240 67.27420 43.12510
503 50.00000 92.85710 78.57140 47.93170 68.44610 63.42810
504 50.00000 92.85710 92.85710 52.50140 69.91120 89.70270
505 57.14290 0.000000 0.000000 12.25980 6.173370 0.350475
506 57.14290 0.000000 14.28570 12.58690 6.281560 2.068400
507 57.14290 0.000000 28.57140 13.37650 6.536850 6.785580
508 57.14290 0.000000 42.85710 14.82370 7.009780 14.96150
509 57.14290 0.000000 57.14290 17.14060 7.774270 28.01090
510 57.14290 0.000000 71.42860 20.17750 8.761470 45.26200
511 57.14290 0.000000 85.71430 24.48780 10.16380 69.54630
512 57.14290 0.000000 100.0000 29.73520 11.80850 99.13780
513 57.14290 14.28570 0.000000 12.86130 7.431980 0.498849
514 57.14290 14.28570 14.28570 13.18750 7.541150 2.218310
515 57.14290 14.28570 28.57140 14.03970 7.820790 6.939740
516 57.14290 14.28570 42.85710 15.48740 8.293930 15.11900
517 57.14290 14.28570 57.14290 17.76760 9.035320 28.28970
518 57.14290 14.28570 71.42860 20.83770 10.04630 45.40830
519 57.14290 14.28570 85.71430 25.11360 11.42570 69.82520
520 57.14290 14.28570 100.0000 30.41970 13.07530 99.28370
521 57.14290 28.57140 0.000000 14.48450 10.84560 0.902793
522 57.14290 28.57140 14.28570 14.80640 10.95790 2.622880
523 57.14290 28.57140 28.57140 15.65890 11.23710 7.342410
524 57.14290 28.57140 42.85710 17.10630 11.71170 15.52920
525 57.14290 28.57140 57.14290 19.36410 12.45200 28.59210
526 57.14290 28.57140 71.42860 22.46170 13.46430 45.84320
527 57.14290 28.57140 85.71430 26.73060 14.82720 70.12720
528 57.14290 28.57140 100.0000 32.03620 16.49890 99.71870
529 57.14290 42.85710 0.000000 17.49930 17.13410 1.648950
530 57.14290 42.85710 14.28570 17.81110 17.25400 3.369410
531 57.14290 42.85710 28.57140 18.66740 17.53050 8.090080
532 57.14290 42.85710 42.85710 20.06620 17.97100 16.27570
533 57.14290 42.85710 57.14290 22.46530 18.76580 29.45570
534 57.14290 42.85710 71.42860 25.46910 19.75590 46.57440
535 57.14290 42.85710 85.71430 29.82230 21.14810 70.99100
536 57.14290 42.85710 100.0000 34.99950 22.82320 100.4510
537 57.14290 57.14290 0.000000 22.06430 26.74920 2.792610
538 57.14290 57.14290 14.28570 22.43870 26.89310 4.514890
539 57.14290 57.14290 28.57140 23.23010 27.14560 9.222880
540 57.14290 57.14290 42.85710 24.65440 27.63820 17.41570
541 57.14290 57.14290 71.42860 30.06280 29.42340 47.74010
542 57.14290 57.14290 85.71430 34.32570 30.79070 72.02420
543 57.14290 57.14290 100.0000 39.63130 32.46240 101.6160
544 57.14290 71.42860 0.000000 28.35200 39.91610 4.352290
545 57.14290 71.42860 14.28570 28.66390 40.03600 6.073320
546 57.14290 71.42860 28.57140 29.52070 40.31260 10.79620
547 57.14290 71.42860 42.85710 30.91850 40.75290 18.97730
548 57.14290 71.42860 57.14290 33.24110 41.52340 32.08960
549 57.14290 71.42860 71.42860 36.33510 42.53830 49.34080
550 57.14290 71.42860 85.71430 40.56000 43.93390 73.62550
551 57.14290 71.42860 100.0000 45.86560 45.60560 103.2170
552 57.14290 85.71430 0.000000 36.51970 57.16150 6.409090
553 57.14290 85.71430 14.28570 36.83170 57.28140 8.130460
554 57.14290 85.71430 28.57140 37.68790 57.55800 12.85110
555 57.14290 85.71430 42.85710 39.14810 58.02230 21.03310
556 57.14290 85.71430 57.14290 41.46820 58.79270 34.13330
557 57.14290 85.71430 71.42860 44.50000 59.78370 51.38460
558 57.14290 85.71430 85.71430 48.76290 61.15100 75.66870
559 57.14290 85.71430 100.0000 54.06850 62.82270 105.2600
560 57.14290 100.0000 0.000000 46.88290 79.11260 9.091560
561 57.14290 100.0000 14.28570 47.13320 79.20860 10.81520
562 57.14290 100.0000 28.57140 47.99170 79.48510 15.54620
563 57.14290 100.0000 42.85710 49.45530 79.94960 23.74470
564 57.14290 100.0000 57.14290 51.78530 80.72030 36.89150
565 57.14290 100.0000 71.42860 54.76490 81.65820 54.00960
566 57.14290 100.0000 85.71430 59.05190 83.07780 78.29420
567 57.14290 100.0000 100.0000 64.33340 84.69720 107.8850
568 64.28570 7.142860 7.142860 16.00110 8.329370 0.933606
569 64.28570 7.142860 21.42860 16.54430 8.506990 4.057150
570 64.28570 7.142860 35.71430 17.69110 8.883960 10.28250
571 64.28570 7.142860 50.00000 19.61730 9.513600 21.16220
572 64.28570 7.142860 64.28570 22.23150 10.36820 36.11270
573 64.28570 7.142860 78.57140 25.80420 11.52690 56.41600
574 64.28570 7.142860 92.85710 30.49610 13.04160 82.69060
575 64.28570 21.42860 7.142860 17.11990 10.62470 1.203850
576 64.28570 21.42860 21.42860 17.66360 10.80180 4.326160
577 64.28570 21.42860 35.71430 18.74810 11.15630 10.56040
578 64.28570 21.42860 50.00000 20.67550 11.78350 21.43050
579 64.28570 21.42860 64.28570 23.29410 12.63840 36.40270
580 64.28570 21.42860 78.57140 26.92420 13.82460 56.70590
581 64.28570 21.42860 92.85710 31.57450 15.29990 82.98030
582 64.28570 35.71430 7.142860 19.34450 15.36880 1.767830
583 64.28570 35.71430 21.42860 19.94660 15.57320 4.893420
584 64.28570 35.71430 35.71430 21.05810 15.90590 11.11590
585 64.28570 35.71430 50.00000 22.99950 16.52490 21.99920
586 64.28570 35.71430 64.28570 25.60400 17.39230 36.98440
587 64.28570 35.71430 78.57140 29.18730 18.59150 57.15540
588 64.28570 35.71430 92.85710 33.81920 20.08060 83.43000
589 64.28570 50.00000 7.142860 23.19410 23.45380 2.727550
590 64.28570 50.00000 21.42860 23.82740 23.63520 5.853530
591 64.28570 50.00000 35.71430 24.88880 24.00630 12.08430
592 64.28570 50.00000 50.00000 26.83090 24.62530 22.97100
593 64.28570 50.00000 64.28570 29.41680 25.49220 37.86800
594 64.28570 50.00000 78.57140 33.06620 26.66400 58.17100
595 64.28570 50.00000 92.85710 37.69810 28.15310 84.44560
596 64.28570 64.28570 7.142860 28.62100 34.84480 4.081720
597 64.28570 64.28570 21.42860 29.21580 35.05440 7.205930
598 64.28570 64.28570 35.71430 30.30860 35.39710 13.40500
599 64.28570 64.28570 50.00000 32.21740 36.04450 24.31480
600 64.28570 64.28570 78.57140 38.44710 38.08300 59.48850
601 64.28570 64.28570 92.85710 43.07900 39.57210 85.76310
602 64.28570 78.57140 7.142860 35.58180 49.50250 5.821630
603 64.28570 78.57140 21.42860 36.15210 49.65990 8.943820
604 64.28570 78.57140 35.71430 37.27650 50.05500 15.17860
605 64.28570 78.57140 50.00000 39.21820 50.67400 26.06290
606 64.28570 78.57140 64.28570 41.79880 51.54070 40.93520
607 64.28570 78.57140 78.57140 45.38600 52.68860 61.23830
608 64.28570 78.57140 92.85710 50.08010 54.20160 87.51280
609 64.28570 92.85710 7.142860 44.61440 68.52390 8.103410
610 64.28570 92.85710 21.42860 45.14780 68.70960 11.23140
611 64.28570 92.85710 35.71430 46.24820 69.05250 17.46610
612 64.28570 92.85710 50.00000 48.17230 69.67090 28.26780
613 64.28570 92.85710 64.28570 50.81710 70.51020 43.26280
614 64.28570 92.85710 78.57140 54.42840 71.71030 63.56640
615 64.28570 92.85710 92.85710 59.06030 73.19930 89.84100
616 71.42860 0.000000 0.000000 19.79100 9.925260 0.448411
617 71.42860 0.000000 14.28570 20.11830 10.03350 2.167560
618 71.42860 0.000000 28.57140 20.97070 10.31310 6.889450
619 71.42860 0.000000 42.85710 22.41810 10.78630 15.06740
620 71.42860 0.000000 57.14290 24.74260 11.55040 28.14950
621 71.42860 0.000000 71.42860 27.77980 12.53740 45.40070
622 71.42860 0.000000 85.71430 32.08990 13.93990 69.68500
623 71.42860 0.000000 100.0000 37.35210 15.57370 99.27620
624 71.42860 14.28570 0.000000 20.45420 11.20830 0.596947
625 71.42860 14.28570 14.28570 20.71800 11.29380 2.317760
626 71.42860 14.28570 28.57140 21.57120 11.57360 7.044320
627 71.42860 14.28570 42.85710 23.02000 12.04700 15.23080
628 71.42860 14.28570 57.14290 25.34060 12.81140 28.29580
629 71.42860 14.28570 71.42860 28.37830 13.79800 45.54690
630 71.42860 14.28570 85.71430 32.68710 15.20140 69.83130
631 71.42860 14.28570 100.0000 37.96000 16.82720 99.42230
632 71.42860 28.57140 0.000000 22.01390 14.59890 1.001420
633 71.42860 28.57140 14.28570 22.33620 14.71130 2.723230
634 71.42860 28.57140 28.57140 23.19170 14.98910 7.448130
635 71.42860 28.57140 42.85710 24.63780 15.46500 15.63720
636 71.42860 28.57140 57.14290 26.96260 16.23080 28.73080
637 71.42860 28.57140 71.42860 30.00800 17.21180 45.98180
638 71.42860 28.57140 85.71430 34.33310 18.60310 70.26580
639 71.42860 28.57140 100.0000 39.57640 20.25080 99.85740
640 71.42860 42.85710 0.000000 25.03100 20.88570 1.747400
641 71.42860 42.85710 14.28570 25.34320 21.00570 3.469340
642 71.42860 42.85710 28.57140 26.20030 21.28220 8.194320
643 71.42860 42.85710 42.85710 27.66260 21.74660 16.38630
644 71.42860 42.85710 57.14290 29.97750 22.51680 29.46180
645 71.42860 42.85710 71.42860 33.00930 23.50780 46.71300
646 71.42860 42.85710 85.71430 37.33440 24.89910 70.99710
647 71.42860 42.85710 100.0000 42.53980 26.57510 100.5890
648 71.42860 57.14290 0.000000 29.62030 30.55300 2.892330
649 71.42860 57.14290 14.28570 29.93270 30.67300 4.615490
650 71.42860 57.14290 28.57140 30.79000 30.94950 9.341130
651 71.42860 57.14290 42.85710 32.25120 31.41390 17.52800
652 71.42860 57.14290 57.14290 34.57120 32.18430 30.62750
653 71.42860 57.14290 71.42860 37.60300 33.17530 47.87880
654 71.42860 57.14290 85.71430 41.92810 34.56660 72.16280
655 71.42860 57.14290 100.0000 47.19570 36.26650 101.7550
656 71.42860 71.42860 0.000000 35.88350 43.66770 4.449750
657 71.42860 71.42860 14.28570 36.19610 43.78770 6.173850
658 71.42860 71.42860 28.57140 37.05310 44.06420 10.89780
659 71.42860 71.42860 42.85710 38.47670 44.55680 19.08750
660 71.42860 71.42860 57.14290 40.84360 45.29930 32.22830
661 71.42860 71.42860 85.71430 48.16240 47.70980 73.76420
662 71.42860 71.42860 100.0000 53.37780 49.35660 103.2230
663 71.42860 85.71430 0.000000 44.05140 60.91310 6.507760
664 71.42860 85.71430 14.28570 44.42610 61.05700 8.231310
665 71.42860 85.71430 28.57140 45.22100 61.30960 12.95600
666 71.42860 85.71430 42.85710 46.64440 61.80220 21.14440
667 71.42860 85.71430 57.14290 49.00850 62.54460 34.27200
668 71.42860 85.71430 71.42860 52.04030 63.53560 51.52320
669 71.42860 85.71430 85.71430 56.36540 64.92690 75.80730
670 71.42860 85.71430 100.0000 61.54270 66.60200 105.2670
671 71.42860 100.0000 0.000000 54.41480 82.86420 9.190750
672 71.42860 100.0000 14.28570 54.72740 82.98420 10.91500
673 71.42860 100.0000 28.57140 55.52490 83.23680 15.65180
674 71.42860 100.0000 42.85710 56.98850 83.70130 23.85000
675 71.42860 100.0000 57.14290 59.29750 84.47130 36.89760
676 71.42860 100.0000 71.42860 62.32930 85.46230 54.14880
677 71.42860 100.0000 85.71430 66.65440 86.85360 78.43290
678 71.42860 100.0000 100.0000 71.89780 88.50130 108.0240
679 78.57140 7.142860 7.142860 24.78130 12.69970 1.048990
680 78.57140 7.142860 21.42860 25.32550 12.87680 4.173580
681 78.57140 7.142860 35.71430 26.47380 13.25450 10.41060
682 78.57140 7.142860 50.00000 28.34110 13.85870 21.29580
683 78.57140 7.142860 64.28570 31.01690 14.73870 36.25230
684 78.57140 7.142860 78.57140 34.56000 15.89760 56.42300
685 78.57140 7.142860 92.85710 39.22020 17.38740 82.83020
686 78.57140 21.42860 7.142860 25.89920 14.99570 1.318980
687 78.57140 21.42860 21.42860 26.38310 15.14700 4.441150
688 78.57140 21.42860 35.71430 27.52870 15.52770 10.68370
689 78.57140 21.42860 50.00000 29.39700 16.13050 21.56540
690 78.57140 21.42860 64.28570 32.07730 17.01050 36.54230
691 78.57140 21.42860 78.57140 35.70920 18.17370 56.71260
692 78.57140 21.42860 92.85710 40.36910 19.66360 83.11980
693 78.57140 35.71430 7.142860 28.11670 19.74520 1.884100
694 78.57140 35.71430 21.42860 28.68790 19.90260 5.010390
695 78.57140 35.71430 35.71430 29.81170 20.29770 11.24240
696 78.57140 35.71430 50.00000 31.69200 20.89280 22.13100
697 78.57140 35.71430 64.28570 34.39860 21.75600 37.12390
698 78.57140 35.71430 78.57140 37.91970 22.93120 57.29490
699 78.57140 35.71430 92.85710 42.61370 24.44430 83.56950
700 78.57140 50.00000 7.142860 31.98350 27.81730 2.842280
701 78.57140 50.00000 21.42860 32.51650 28.00300 5.968570
702 78.57140 50.00000 35.71430 33.67940 28.36980 12.20500
703 78.57140 50.00000 50.00000 35.56060 28.96490 23.09800
704 78.57140 50.00000 64.28570 38.21140 29.85580 38.00750
705 78.57140 50.00000 78.57140 41.79850 31.00370 58.31050
706 78.57140 50.00000 92.85710 46.45460 32.54500 84.58570
707 78.57140 64.28570 7.142860 37.43480 39.26050 4.198420
708 78.57140 64.28570 21.42860 37.96760 39.44620 7.323780
709 78.57140 64.28570 35.71430 39.06860 39.78910 13.56160
710 78.57140 64.28570 50.00000 41.00630 40.40790 24.42700
711 78.57140 64.28570 64.28570 43.68260 41.29970 39.45760
712 78.57140 64.28570 78.57140 47.24170 42.44670 59.62800
713 78.57140 64.28570 92.85710 51.87360 43.93570 85.90260
714 78.57140 78.57140 7.142860 44.37100 53.86600 5.935520
715 78.57140 78.57140 21.42860 44.94100 54.02340 9.056480
716 78.57140 78.57140 35.71430 46.06750 54.41860 15.30120
717 78.57140 78.57140 50.00000 47.94710 55.01360 26.18620
718 78.57140 78.57140 64.28570 50.53120 55.88040 41.07480
719 78.57140 78.57140 92.85710 58.81240 58.54130 87.65240
720 78.57140 92.85710 7.142860 53.40100 72.88730 8.205020
721 78.57140 92.85710 21.42860 53.93710 73.07310 11.34600
722 78.57140 92.85710 35.71430 55.03810 73.41600 17.58350
723 78.57140 92.85710 50.00000 56.96690 74.03460 28.40730
724 78.57140 92.85710 64.28570 59.57360 74.90210 43.40290
725 78.57140 92.85710 78.57140 63.22300 76.07390 63.70580
726 78.57140 92.85710 92.85710 67.85480 77.56300 89.98050
727 85.71430 0.000000 0.000000 30.21560 15.11210 0.585072
728 85.71430 0.000000 14.28570 30.54290 15.22090 2.307680
729 85.71430 0.000000 28.57140 31.39630 15.50010 7.032010
730 85.71430 0.000000 42.85710 32.84560 15.97460 15.22700
731 85.71430 0.000000 57.14290 35.10410 16.71470 28.29050
732 85.71430 0.000000 71.42860 38.14170 17.70130 45.54170
733 85.71430 0.000000 85.71430 42.45370 19.10240 69.82590
734 85.71430 0.000000 100.0000 47.73620 20.72110 99.41690
735 85.71430 14.28570 0.000000 30.81510 16.37230 0.734058
736 85.71430 14.28570 14.28570 31.14110 16.48240 2.459010
737 85.71430 14.28570 28.57140 31.99600 16.76220 7.193260
738 85.71430 14.28570 42.85710 33.44640 17.23700 15.39460
739 85.71430 14.28570 57.14290 35.70570 17.97290 28.43670
740 85.71430 14.28570 71.42860 38.80030 18.98730 45.68790
741 85.71430 14.28570 85.71430 43.06260 20.35510 69.97200
742 85.71430 14.28570 100.0000 48.30600 22.00290 99.56360
743 85.71430 28.57140 0.000000 32.43510 19.78840 1.139070
744 85.71430 28.57140 14.28570 32.75640 19.90200 2.863850
745 85.71430 28.57140 28.57140 33.61060 20.18160 7.594160
746 85.71430 28.57140 42.85710 35.06060 20.65700 15.79820
747 85.71430 28.57140 57.14290 37.36020 21.36820 28.87120
748 85.71430 28.57140 71.42860 40.45420 22.38310 46.12240
749 85.71430 28.57140 85.71430 44.74130 23.80270 70.40700
750 85.71430 28.57140 100.0000 49.98470 25.45040 99.99860
751 85.71430 42.85710 0.000000 35.43860 26.08530 1.885300
752 85.71430 42.85710 14.28570 35.75160 26.20530 3.611580
753 85.71430 42.85710 28.57140 36.61030 26.48190 8.343420
754 85.71430 42.85710 42.85710 38.07450 26.94630 16.54460
755 85.71430 42.85710 57.14290 40.32360 27.69250 29.60300
756 85.71430 42.85710 71.42860 43.41760 28.70740 46.85420
757 85.71430 42.85710 85.71430 47.74270 30.09870 71.13830
758 85.71430 42.85710 100.0000 52.98610 31.74650 100.7300
759 85.71430 57.14290 0.000000 40.06600 35.72440 3.030220
760 85.71430 57.14290 14.28570 40.34110 35.87260 4.757660
761 85.71430 57.14290 28.57140 41.19900 36.14920 9.485830
762 85.71430 57.14290 42.85710 42.66350 36.61360 17.68820
763 85.71430 57.14290 57.14290 44.97950 37.38390 30.76870
764 85.71430 57.14290 71.42860 48.01130 38.37490 48.02000
765 85.71430 57.14290 85.71430 52.27420 39.74220 72.30410
766 85.71430 57.14290 100.0000 57.57970 41.41390 101.8960
767 85.71430 71.42860 0.000000 46.29170 48.86730 4.590570
768 85.71430 71.42860 14.28570 46.66520 49.01120 6.308600
769 85.71430 71.42860 28.57140 47.46350 49.26390 11.04920
770 85.71430 71.42860 42.85710 48.88980 49.75660 19.25150
771 85.71430 71.42860 57.14290 51.25180 50.49890 32.36950
772 85.71430 71.42860 71.42860 54.28360 51.48980 49.62070
773 85.71430 71.42860 85.71430 58.60870 52.88120 73.90480
774 85.71430 71.42860 100.0000 63.81410 54.55710 103.4970
775 85.71430 85.71430 0.000000 54.45960 66.11270 6.648590
776 85.71430 85.71430 14.28570 54.83460 66.25670 8.373570
777 85.71430 85.71430 28.57140 55.63020 66.50930 13.10130
778 85.71430 85.71430 42.85710 57.09450 66.97370 21.30300
779 85.71430 85.71430 57.14290 59.41670 67.74420 34.41320
780 85.71430 85.71430 71.42860 62.44850 68.73520 51.66440
781 85.71430 85.71430 100.0000 72.01700 71.77420 105.5400
782 85.71430 100.0000 0.000000 64.82200 88.06380 9.326920
783 85.71430 100.0000 14.28570 65.07340 88.15980 11.05620
784 85.71430 100.0000 28.57140 65.93320 88.43640 15.79330
785 85.71430 100.0000 42.85710 67.39800 88.90090 23.99720
786 85.71430 100.0000 57.14290 69.70570 89.67090 37.03880
787 85.71430 100.0000 71.42860 72.77560 90.63370 54.28940
788 85.71430 100.0000 85.71430 77.09070 92.05410 78.70660
789 85.71430 100.0000 100.0000 82.24380 93.67700 108.1660
790 92.85710 7.142860 7.142860 35.88330 18.22710 1.198350
791 92.85710 7.142860 21.42860 36.42820 18.40510 4.331320
792 92.85710 7.142860 35.71430 37.57810 18.78300 10.57650
793 92.85710 7.142860 50.00000 39.44370 19.38720 21.45460
794 92.85710 7.142860 64.28570 42.05380 20.24310 36.39390
795 92.85710 7.142860 78.57140 45.68920 21.42530 56.69710
796 92.85710 7.142860 92.85710 50.32860 22.90880 82.97160
797 92.85710 21.42860 7.142860 36.99840 20.52530 1.468920
798 92.85710 21.42860 21.42860 37.54280 20.70360 4.601790
799 92.85710 21.42860 35.71430 38.63070 21.05830 10.85180
800 92.85710 21.42860 50.00000 40.56170 21.68500 21.73590
801 92.85710 21.42860 64.28570 43.20450 22.51800 36.68340
802 92.85710 21.42860 78.57140 46.75360 23.69410 56.98710
803 92.85710 21.42860 92.85710 51.44770 25.20720 83.26160
804 92.85710 35.71430 7.142860 39.23520 25.26060 2.034000
805 92.85710 35.71430 21.42860 39.83180 25.47020 5.166700
806 92.85710 35.71430 35.71430 40.93400 25.81320 11.41000
807 92.85710 35.71430 50.00000 42.87720 26.43220 22.30220
808 92.85710 35.71430 64.28570 45.47720 27.29950 37.26570
809 92.85710 35.71430 78.57140 49.06440 28.44740 57.56880
810 92.85710 35.71430 92.85710 53.75840 29.96050 83.84330
811 92.85710 50.00000 7.142860 43.06410 33.36090 2.993930
812 92.85710 50.00000 21.42860 43.69890 33.54230 6.126560
813 92.85710 50.00000 35.71430 44.76320 33.91360 12.37160
814 92.85710 50.00000 50.00000 46.64460 34.50860 23.26500
815 92.85710 50.00000 64.28570 49.32800 35.37110 38.14880
816 92.85710 50.00000 78.57140 52.87720 36.54730 58.45240
817 92.85710 50.00000 92.85710 57.50900 38.03630 84.72700
818 92.85710 64.28570 7.142860 48.55330 44.77590 4.348580
819 92.85710 64.28570 21.42860 49.08810 44.96160 7.483170
820 92.85710 64.28570 35.71430 50.21390 45.35680 13.72450
821 92.85710 64.28570 50.00000 52.09280 45.95170 24.60660
822 92.85710 64.28570 64.28570 54.73700 46.79100 39.59890
823 92.85710 64.28570 78.57140 58.32030 47.99020 59.76990
824 92.85710 64.28570 92.85710 62.95220 49.47930 86.04450
825 92.85710 78.57140 7.142860 55.45150 59.40960 6.086600
826 92.85710 78.57140 21.42860 56.02410 59.56710 9.219440
827 92.85710 78.57140 35.71430 57.15070 59.96230 15.46440
828 92.85710 78.57140 50.00000 59.09180 60.58120 26.34640
829 92.85710 78.57140 64.28570 61.70000 61.44880 41.34920
830 92.85710 78.57140 78.57140 65.25920 62.59580 61.51960
831 92.85710 78.57140 92.85710 69.89100 64.08490 87.79420
832 92.85710 92.85710 7.142860 64.45960 78.37880 8.366140
833 92.85710 92.85710 21.42860 65.05600 78.58850 11.49790
834 92.85710 92.85710 35.71430 66.15790 78.93140 17.73960
835 92.85710 92.85710 50.00000 67.98330 79.55420 28.54920
836 92.85710 92.85710 64.28570 70.62800 80.39350 43.54420
837 92.85710 92.85710 78.57140 74.27740 81.56530 63.84720
838 100.0000 0.000000 0.000000 43.07400 21.51520 0.768811
839 100.0000 0.000000 14.28570 43.34090 21.59940 2.495300
840 100.0000 0.000000 28.57140 44.19130 21.87960 7.212190
841 100.0000 0.000000 42.85710 45.64620 22.35460 15.43520
842 100.0000 0.000000 57.14290 47.98180 23.11840 28.56610
843 100.0000 0.000000 71.42860 50.99120 24.10430 45.68460
844 100.0000 0.000000 85.71430 55.33750 25.50160 70.10140
845 100.0000 0.000000 100.0000 60.58090 27.14930 99.69290
846 100.0000 14.28570 0.000000 43.67170 22.77680 0.918032
847 100.0000 14.28570 14.28570 43.93740 22.86230 2.647420
848 100.0000 14.28570 28.57140 44.79360 23.14300 7.393160
849 100.0000 14.28570 42.85710 46.24670 23.61750 15.60580
850 100.0000 14.28570 57.14290 48.57530 24.38270 28.71240
851 100.0000 14.28570 71.42860 51.62030 25.36390 45.96350
852 100.0000 14.28570 85.71430 55.94540 26.75520 70.24750
853 100.0000 14.28570 100.0000 61.18880 28.40290 99.83910
854 100.0000 28.57140 0.000000 45.29770 26.18860 1.323980
855 100.0000 28.57140 14.28570 45.61150 26.30860 3.053810
856 100.0000 28.57140 28.57140 46.47250 26.58520 7.796950
857 100.0000 28.57140 42.85710 47.94020 27.04980 16.01430
858 100.0000 28.57140 57.14290 50.20500 27.79650 29.14730
859 100.0000 28.57140 71.42860 53.23680 28.78740 46.39850
860 100.0000 28.57140 85.71430 57.56190 30.17880 70.68260
861 100.0000 28.57140 100.0000 62.80530 31.82650 100.2740
862 100.0000 42.85710 0.000000 48.30260 32.48480 2.072050
863 100.0000 42.85710 14.28570 48.61630 32.60480 3.801450
864 100.0000 42.85710 28.57140 49.47720 32.88140 8.544140
865 100.0000 42.85710 42.85710 50.90580 33.37420 16.75710
866 100.0000 42.85710 57.14290 53.26860 34.11650 29.87850
867 100.0000 42.85710 71.42860 56.23820 35.08350 47.12980
868 100.0000 42.85710 85.71430 60.52520 36.50310 71.41440
869 100.0000 42.85710 100.0000 65.74050 38.14990 100.8730
870 100.0000 57.14290 0.000000 52.89200 42.15210 3.217690
871 100.0000 57.14290 14.28570 53.20630 42.27210 4.949840
872 100.0000 57.14290 28.57140 54.06680 42.54870 9.690150
873 100.0000 57.14290 42.85710 55.49590 43.04150 17.90580
874 100.0000 57.14290 57.14290 57.86230 43.78390 31.04420
875 100.0000 57.14290 71.42860 60.89400 44.77490 48.29550
876 100.0000 57.14290 85.71430 65.15700 46.14230 72.57960
877 100.0000 57.14290 100.0000 70.33420 47.81740 102.0390
878 100.0000 71.42860 0.000000 59.15530 55.26680 4.775290
879 100.0000 71.42860 14.28570 59.43130 55.41500 6.507240
880 100.0000 71.42860 28.57140 60.29130 55.69160 11.24550
881 100.0000 71.42860 42.85710 61.75770 56.15620 19.45640
882 100.0000 71.42860 57.14290 64.03440 56.90320 32.64560
883 100.0000 71.42860 71.42860 67.10030 57.91730 49.76420
884 100.0000 71.42860 85.71430 71.36320 59.28460 74.04830
885 100.0000 71.42860 100.0000 76.60660 60.93230 103.6400
886 100.0000 85.71430 0.000000 67.32290 72.51220 6.832110
887 100.0000 85.71430 14.28570 67.63650 72.63220 8.560710
888 100.0000 85.71430 28.57140 68.49690 72.90880 13.30110
889 100.0000 85.71430 42.85710 69.92350 73.40150 21.50470
890 100.0000 85.71430 57.14290 72.20930 74.11940 34.55610
891 100.0000 85.71430 71.42860 75.30320 75.13430 51.80730
892 100.0000 85.71430 85.71430 79.56620 76.50170 76.09140
893 100.0000 85.71430 100.0000 84.80950 78.14940 105.6830
894 100.0000 100.0000 0.000000 77.62350 94.43930 9.512520
895 100.0000 100.0000 14.28570 77.91340 94.50710 11.24290
896 100.0000 100.0000 28.57140 78.73560 94.81200 15.98270
897 100.0000 100.0000 42.85710 80.20020 95.27640 24.18570
898 100.0000 100.0000 57.14290 82.52630 96.04700 37.31430
899 100.0000 100.0000 71.42860 85.50590 96.98490 54.43240
900 100.0000 100.0000 85.71430 89.88320 98.42930 78.84960
901 0.000000 12.54900 100.0000 18.11540 6.789470 99.27180
902 12.54900 0.000000 100.0000 18.20820 6.056750 99.12850
903 0.000000 100.0000 12.54900 34.93830 73.17500 10.32920
904 12.54900 100.0000 0.000000 35.30700 73.37730 8.951390
905 100.0000 0.000000 12.54900 43.28780 21.58340 2.156990
906 100.0000 12.54900 0.000000 43.53100 22.52640 0.889569
907 0.000000 25.09800 100.0000 19.36670 9.399020 99.56520
908 25.09800 0.000000 100.0000 19.71720 6.810670 99.12980
909 0.000000 100.0000 25.09800 35.51520 73.39150 13.84330
910 25.09800 100.0000 0.000000 36.73730 74.14150 8.968640
911 100.0000 0.000000 25.09800 43.95530 21.80360 5.675870
912 100.0000 25.09800 0.000000 44.78860 25.14520 1.198640
END_DATA
CAL    

ORIGINATOR "Argyll dispread"
CREATED "Fri Sep 27 22:13:05 2013"
KEYWORD "DEVICE_CLASS"
DEVICE_CLASS "DISPLAY"
DESCRIPTOR "Argyll Device Calibration State"

BEGIN_ARGYLL_DISPCAL_ARGS
-v2 -qm -o -u -w0.312699,0.329001 -b140.0 -gs -f1.0 -k0 -A4.0 -d1 -c1 -yn -P0.541198501873,0.548228346457,1.49823321555 -X "WLEDFamily_07Feb11.ccss"
END_ARGYLL_DISPCAL_ARGS

KEYWORD "COLOR_REP"
COLOR_REP "RGB"

KEYWORD "RGB_I"
NUMBER_OF_FIELDS 4
BEGIN_DATA_FORMAT
RGB_I RGB_R RGB_G RGB_B
END_DATA_FORMAT

NUMBER_OF_SETS 256
BEGIN_DATA
0.00000000 0.01368040 0.01265220 0.01271770
0.00392157 0.01820210 0.01754740 0.01779630
0.00784314 0.02270170 0.02240740 0.02283250
0.01176470 0.02717940 0.02723240 0.02782700
0.01568630 0.03163520 0.03202280 0.03278010
0.01960780 0.03606930 0.03677900 0.03769250
0.02352940 0.04048200 0.04150140 0.04256460
0.02745100 0.04487340 0.04619030 0.04739680
0.03137250 0.04924350 0.05084540 0.05218840
0.03529410 0.05359140 0.05546460 0.05693740
0.03921570 0.05791580 0.06004630 0.06164200
0.04313730 0.06221600 0.06458890 0.06630060
0.04705880 0.06649120 0.06909080 0.07091180
0.05098040 0.07074020 0.07355050 0.07547440
0.05490200 0.07496210 0.07796600 0.07998650
0.05882350 0.07915550 0.08233680 0.08444790
0.06274510 0.08331970 0.08666310 0.08885900
0.06666670 0.08745520 0.09094460 0.09321970
0.07058820 0.09156200 0.09518240 0.09753080
0.07450980 0.09564200 0.09937930 0.10179400
0.07843140 0.09969610 0.10353700 0.10600900
0.08235290 0.10372500 0.10765700 0.11017700
0.08627450 0.10773100 0.11174000 0.11430000
0.09019610 0.11171500 0.11579000 0.11837800
0.09411760 0.11567700 0.11981000 0.12241400
0.09803920 0.11962000 0.12380000 0.12640800
0.10196100 0.12354400 0.12776000 0.13036300
0.10588200 0.12744700 0.13169200 0.13428100
0.10980400 0.13133000 0.13559600 0.13816200
0.11372500 0.13519200 0.13947800 0.14201700
0.11764700 0.13903800 0.14334200 0.14584400
0.12156900 0.14287300 0.14718900 0.14964400
0.12549000 0.14669800 0.15101900 0.15341900
0.12941200 0.15051300 0.15483300 0.15717100
0.13333300 0.15431800 0.15863500 0.16090200
0.13725500 0.15811600 0.16242800 0.16461100
0.14117600 0.16190600 0.16621000 0.16830100
0.14509800 0.16569000 0.16998200 0.17197100
0.14902000 0.16946700 0.17374400 0.17562200
0.15294100 0.17323600 0.17749600 0.17925400
0.15686300 0.17699700 0.18123200 0.18286800
0.16078400 0.18074900 0.18495300 0.18646500
0.16470600 0.18449200 0.18865800 0.19004400
0.16862700 0.18822600 0.19234500 0.19360500
0.17254900 0.19194900 0.19601600 0.19714900
0.17647100 0.19566200 0.19967000 0.20067400
0.18039200 0.19936200 0.20330700 0.20418200
0.18431400 0.20305000 0.20692700 0.20767200
0.18823500 0.20672400 0.21053000 0.21114800
0.19215700 0.21038500 0.21412600 0.21462100
0.19607800 0.21403600 0.21771400 0.21809000
0.20000000 0.21768000 0.22129400 0.22155700
0.20392200 0.22131600 0.22486800 0.22502100
0.20784300 0.22494500 0.22843500 0.22848100
0.21176500 0.22856700 0.23199200 0.23193800
0.21568600 0.23218100 0.23554100 0.23539000
0.21960800 0.23578900 0.23908300 0.23883500
0.22352900 0.23939000 0.24261700 0.24227400
0.22745100 0.24298600 0.24614300 0.24570700
0.23137300 0.24657600 0.24966300 0.24913300
0.23529400 0.25016200 0.25317500 0.25255300
0.23921600 0.25374300 0.25668000 0.25596700
0.24313700 0.25732000 0.26018200 0.25938100
0.24705900 0.26089400 0.26368500 0.26279700
0.25098000 0.26446800 0.26718600 0.26621400
0.25490200 0.26804200 0.27068600 0.26963000
0.25882400 0.27161600 0.27418500 0.27304600
0.26274500 0.27519000 0.27768200 0.27646200
0.26666700 0.27876300 0.28117700 0.27987900
0.27058800 0.28233500 0.28467000 0.28329500
0.27451000 0.28590800 0.28816100 0.28671000
0.27843100 0.28948100 0.29165000 0.29012500
0.28235300 0.29305500 0.29513500 0.29353900
0.28627500 0.29662900 0.29861800 0.29695200
0.29019600 0.30020400 0.30209700 0.30036400
0.29411800 0.30377900 0.30557100 0.30377400
0.29803900 0.30735400 0.30904100 0.30718100
0.30196100 0.31092800 0.31251000 0.31058600
0.30588200 0.31450400 0.31597800 0.31398900
0.30980400 0.31808000 0.31944600 0.31739000
0.31372500 0.32165700 0.32291200 0.32079000
0.31764700 0.32523300 0.32637600 0.32418700
0.32156900 0.32880900 0.32984000 0.32758300
0.32549000 0.33238300 0.33330200 0.33097700
0.32941200 0.33595700 0.33676200 0.33437000
0.33333300 0.33952900 0.34022600 0.33776400
0.33725500 0.34310200 0.34369500 0.34116400
0.34117600 0.34667400 0.34717100 0.34457100
0.34509800 0.35024600 0.35065300 0.34798600
0.34902000 0.35381800 0.35414300 0.35140700
0.35294100 0.35739000 0.35763900 0.35483600
0.35686300 0.36096200 0.36114300 0.35827300
0.36078400 0.36453400 0.36465400 0.36171700
0.36470600 0.36810700 0.36817200 0.36517000
0.36862700 0.37167800 0.37169700 0.36863000
0.37254900 0.37524800 0.37522800 0.37209800
0.37647100 0.37881600 0.37876600 0.37557500
0.38039200 0.38238200 0.38231000 0.37906000
0.38431400 0.38595100 0.38586800 0.38255400
0.38823500 0.38952600 0.38944100 0.38606300
0.39215700 0.39310700 0.39302900 0.38958800
0.39607800 0.39669500 0.39663300 0.39312900
0.40000000 0.40029100 0.40025200 0.39668600
0.40392200 0.40389300 0.40388500 0.40025900
0.40784300 0.40750100 0.40752900 0.40384600
0.41176500 0.41111100 0.41117300 0.40744600
0.41568600 0.41472000 0.41481500 0.41105000
0.41960800 0.41832900 0.41845400 0.41465600
0.42352900 0.42193700 0.42208900 0.41826200
0.42745100 0.42554400 0.42572100 0.42186800
0.43137300 0.42914900 0.42935200 0.42547400
0.43529400 0.43275500 0.43298100 0.42908000
0.43921600 0.43636000 0.43661000 0.43268600
0.44313700 0.43996700 0.44024400 0.43629300
0.44705900 0.44357600 0.44388300 0.43990400
0.45098000 0.44718600 0.44752500 0.44351900
0.45490200 0.45079700 0.45117100 0.44713900
0.45882400 0.45441000 0.45482100 0.45076100
0.46274500 0.45802500 0.45847400 0.45438400
0.46666700 0.46164100 0.46213100 0.45800700
0.47058800 0.46526100 0.46579000 0.46163000
0.47451000 0.46888400 0.46945300 0.46525100
0.47843100 0.47251000 0.47311900 0.46887000
0.48235300 0.47613800 0.47678800 0.47248900
0.48627500 0.47976900 0.48046200 0.47610800
0.49019600 0.48340300 0.48414000 0.47972600
0.49411800 0.48704100 0.48782100 0.48334500
0.49803900 0.49068100 0.49150700 0.48696300
0.50196100 0.49432400 0.49519700 0.49058100
0.50588200 0.49797000 0.49889100 0.49419900
0.50980400 0.50161900 0.50259000 0.49781700
0.51372500 0.50527100 0.50629700 0.50143400
0.51764700 0.50892500 0.51000500 0.50505600
0.52156900 0.51257600 0.51370900 0.50868800
0.52549000 0.51622600 0.51740800 0.51231900
0.52941200 0.51987500 0.52110200 0.51594500
0.53333300 0.52352100 0.52479100 0.51956900
0.53725500 0.52716600 0.52847400 0.52318800
0.54117600 0.53081000 0.53215300 0.52680400
0.54509800 0.53445200 0.53582700 0.53041600
0.54902000 0.53809200 0.53949500 0.53402500
0.55294100 0.54173000 0.54315800 0.53763000
0.55686300 0.54536700 0.54681400 0.54123200
0.56078400 0.54900300 0.55046500 0.54483000
0.56470600 0.55263700 0.55411100 0.54842300
0.56862700 0.55626900 0.55775200 0.55201200
0.57254900 0.55989800 0.56138800 0.55559800
0.57647100 0.56352500 0.56502000 0.55918000
0.58039200 0.56714700 0.56864600 0.56276000
0.58431400 0.57076600 0.57226700 0.56633800
0.58823500 0.57438000 0.57588100 0.56991400
0.59215700 0.57798800 0.57948800 0.57348700
0.59607800 0.58159100 0.58308800 0.57705700
0.60000000 0.58518900 0.58668000 0.58062200
0.60392200 0.58878100 0.59026500 0.58418200
0.60784300 0.59236700 0.59384200 0.58773700
0.61176500 0.59594800 0.59741500 0.59128500
0.61568600 0.59952300 0.60098100 0.59482900
0.61960800 0.60309400 0.60454100 0.59836700
0.62352900 0.60666100 0.60810300 0.60190100
0.62745100 0.61022900 0.61166900 0.60543500
0.63137300 0.61379700 0.61523900 0.60897800
0.63529400 0.61736500 0.61881300 0.61253300
0.63921600 0.62093300 0.62239100 0.61609800
0.64313700 0.62450100 0.62597300 0.61967500
0.64705900 0.62806800 0.62956100 0.62326500
0.65098000 0.63164100 0.63316300 0.62686900
0.65490200 0.63522200 0.63677800 0.63049000
0.65882400 0.63881100 0.64040700 0.63413400
0.66274500 0.64241000 0.64405000 0.63780100
0.66666700 0.64601900 0.64770700 0.64149100
0.67058800 0.64963900 0.65137600 0.64520300
0.67451000 0.65326900 0.65505600 0.64893800
0.67843100 0.65690700 0.65874500 0.65269500
0.68235300 0.66055400 0.66244300 0.65647100
0.68627500 0.66420800 0.66615100 0.66026500
0.69019600 0.66787000 0.66986800 0.66407800
0.69411800 0.67154100 0.67359200 0.66790900
0.69803900 0.67522200 0.67732300 0.67175400
0.70196100 0.67891300 0.68106100 0.67560600
0.70588200 0.68261500 0.68480500 0.67946500
0.70980400 0.68632600 0.68855400 0.68333100
0.71372500 0.69004600 0.69230700 0.68720300
0.71764700 0.69377400 0.69606200 0.69107800
0.72156900 0.69750900 0.69982100 0.69495600
0.72549000 0.70125300 0.70358600 0.69883700
0.72941200 0.70500700 0.70735800 0.70272100
0.73333300 0.70877200 0.71114000 0.70660800
0.73725500 0.71254700 0.71493200 0.71050000
0.74117600 0.71633500 0.71873800 0.71439800
0.74509800 0.72013500 0.72256000 0.71830200
0.74902000 0.72395000 0.72639900 0.72221700
0.75294100 0.72778000 0.73025300 0.72614300
0.75686300 0.73162200 0.73412500 0.73008000
0.76078400 0.73547800 0.73801400 0.73402900
0.76470600 0.73934600 0.74192100 0.73798900
0.76862700 0.74322700 0.74584600 0.74196200
0.77254900 0.74712200 0.74979200 0.74594800
0.77647100 0.75103200 0.75376700 0.74994900
0.78039200 0.75496100 0.75776800 0.75397200
0.78431400 0.75890900 0.76179400 0.75801700
0.78823500 0.76287600 0.76584800 0.76208100
0.79215700 0.76686200 0.76992700 0.76616700
0.79607800 0.77086600 0.77403200 0.77027200
0.80000000 0.77488800 0.77816400 0.77439700
0.80392200 0.77892800 0.78232300 0.77854400
0.80784300 0.78298400 0.78650800 0.78271400
0.81176500 0.78705800 0.79072000 0.78690800
0.81568600 0.79114700 0.79495600 0.79112600
0.81960800 0.79525200 0.79921600 0.79536600
0.82352900 0.79937200 0.80348800 0.79962800
0.82745100 0.80350400 0.80776100 0.80390100
0.83137300 0.80764300 0.81203700 0.80817800
0.83529400 0.81178800 0.81631200 0.81245800
0.83921600 0.81593800 0.82058600 0.81673900
0.84313700 0.82009200 0.82486000 0.82102100
0.84705900 0.82425300 0.82913300 0.82530200
0.85098000 0.82842000 0.83340700 0.82958500
0.85490200 0.83259500 0.83767400 0.83386800
0.85882400 0.83677500 0.84193400 0.83815400
0.86274500 0.84096100 0.84618600 0.84244400
0.86666700 0.84515200 0.85043200 0.84673600
0.87058800 0.84934900 0.85466900 0.85103100
0.87451000 0.85355200 0.85889900 0.85532700
0.87843100 0.85776200 0.86311900 0.85962300
0.88235300 0.86197800 0.86732900 0.86391800
0.88627500 0.86620000 0.87152900 0.86821000
0.89019600 0.87042700 0.87572200 0.87250200
0.89411800 0.87466100 0.87991900 0.87679600
0.89803900 0.87891100 0.88411800 0.88110200
0.90196100 0.88318000 0.88831900 0.88541800
0.90588200 0.88746500 0.89252200 0.88974200
0.90980400 0.89177000 0.89672800 0.89407100
0.91372500 0.89609500 0.90093800 0.89840500
0.91764700 0.90043900 0.90515600 0.90274400
0.92156900 0.90480500 0.90938100 0.90709000
0.92549000 0.90919200 0.91361500 0.91144300
0.92941200 0.91359900 0.91785800 0.91580300
0.93333300 0.91802600 0.92211200 0.92017000
0.93725500 0.92247300 0.92637600 0.92454500
0.94117600 0.92694100 0.93064900 0.92892800
0.94509800 0.93142700 0.93493000 0.93331800
0.94902000 0.93593200 0.93921800 0.93771600
0.95294100 0.94045500 0.94351300 0.94212000
0.95686300 0.94499400 0.94781600 0.94653400
0.96078400 0.94955100 0.95212600 0.95095600
0.96470600 0.95412600 0.95644500 0.95538800
0.96862700 0.95871800 0.96077200 0.95982800
0.97254900 0.96332800 0.96510700 0.96427900
0.97647100 0.96795500 0.96945100 0.96874000
0.98039200 0.97259900 0.97380300 0.97321000
0.98431400 0.97726000 0.97816500 0.97769100
0.98823500 0.98193800 0.98253400 0.98218100
0.99215700 0.98663400 0.98691200 0.98668100
0.99607800 0.99134700 0.99129900 0.99119200
1.00000000 0.99607800 0.99569500 0.99571200
END_DATA