CTI3   

ORIGINATOR "Argyll dispread"
KEYWORD "USE_BLACK_POINT_COMPENSATION"
USE_BLACK_POINT_COMPENSATION "NO"
CREATED "Sat Sep 28 15:14:53 2013"
KEYWORD "TARGET_INSTRUMENT"
TARGET_INSTRUMENT "Xrite i1 DisplayPro, ColorMunki Display"
KEYWORD "DISPLAY_TYPE_REFRESH"
DISPLAY_TYPE_REFRESH "NO"
KEYWORD "COMP_GREY_STEPS"
COMP_GREY_STEPS "57"
KEYWORD "LUMINANCE_XYZ_CDM2"
LUMINANCE_XYZ_CDM2 "132.008286 139.250691 150.870368"
KEYWORD "VIDEO_LUT_CALIBRATION_POSSIBLE"
VIDEO_LUT_CALIBRATION_POSSIBLE "YES"
KEYWORD "SINGLE_DIM_STEPS"
SINGLE_DIM_STEPS "0"
DESCRIPTOR "Argyll Calibration Target chart information 3"

BEGIN_ARGYLL_COLPROF_ARGS
-v -qh -al -C "No copyright. Created with dispcalGUI 0.0.0.0 and Argyll CMS 1.6.0" -M "DELL 2407WFP" -A "Dell"
END_ARGYLL_COLPROF_ARGS

KEYWORD "DEVICE_CLASS"
DEVICE_CLASS "DISPLAY"
KEYWORD "NORMALIZED_TO_Y_100"
NORMALIZED_TO_Y_100 "YES"
KEYWORD "DISPLAY_TYPE_BASE_ID"
DISPLAY_TYPE_BASE_ID "1"
KEYWORD "INSTRUMENT_TYPE_SPECTRAL"
INSTRUMENT_TYPE_SPECTRAL "NO"
KEYWORD "COLOR_REP"
COLOR_REP "RGB_XYZ"

NUMBER_OF_FIELDS 7
BEGIN_DATA_FORMAT
SAMPLE_ID RGB_R RGB_G RGB_B XYZ_X XYZ_Y XYZ_Z
END_DATA_FORMAT

NUMBER_OF_SETS 912
BEGIN_DATA
1 100.0000 100.0000 100.0000 94.79900 100.0000 108.3440
2 100.0000 100.0000 100.0000 94.40470 99.60880 108.0700
3 100.0000 100.0000 100.0000 94.62890 99.86850 108.0720
4 100.0000 100.0000 100.0000 94.90570 100.0330 109.0220
5 0.000000 0.000000 0.000000 0.186055 0.172605 0.187054
6 1.785700 1.785700 1.785700 0.261184 0.255624 0.284262
7 3.571400 3.571400 3.571400 0.345722 0.341489 0.391374
8 5.357100 5.357100 5.357100 0.518225 0.523129 0.576970
9 7.142900 7.142900 7.142900 0.665912 0.685507 0.773876
10 8.928600 8.928600 8.928600 0.953624 1.000500 1.035780
11 10.71400 10.71400 10.71400 1.157610 1.203590 1.316850
12 12.50000 12.50000 12.50000 1.514350 1.576030 1.673900
13 14.28600 14.28600 14.28600 1.842180 1.919060 2.099160
14 16.07100 16.07100 16.07100 2.226370 2.321580 2.571540
15 17.85700 17.85700 17.85700 2.685780 2.794980 3.198640
16 19.64300 19.64300 19.64300 3.201250 3.327030 3.702130
17 21.42900 21.42900 21.42900 3.765630 3.919680 4.246200
18 23.21400 23.21400 23.21400 4.235910 4.381650 4.874450
19 25.00000 25.00000 25.00000 4.928800 5.211210 5.490150
20 26.78600 26.78600 26.78600 5.491380 5.770490 6.192990
21 28.57100 28.57100 28.57100 6.385400 6.662190 7.321410
22 30.35700 30.35700 30.35700 7.119650 7.530170 8.209210
23 32.14300 32.14300 32.14300 8.026380 8.496110 9.248490
24 33.92900 33.92900 33.92900 8.976170 9.541300 10.43170
25 35.71400 35.71400 35.71400 9.802520 10.31980 11.12740
26 37.50000 37.50000 37.50000 11.21660 11.81100 12.75830
27 39.28600 39.28600 39.28600 12.04500 12.62460 13.67310
28 41.07100 41.07100 41.07100 13.32710 14.12950 15.21930
29 42.85700 42.85700 42.85700 14.45960 15.15290 16.62300
30 44.64300 44.64300 44.64300 15.84800 16.73520 18.25750
31 46.42900 46.42900 46.42900 17.46840 18.22680 19.96530
32 48.21400 48.21400 48.21400 18.84920 19.91330 21.33540
33 50.00000 50.00000 50.00000 20.52600 21.54080 23.25660
34 51.78600 51.78600 51.78600 21.71420 22.64790 24.98580
35 53.57100 53.57100 53.57100 23.36230 24.57310 26.85330
36 55.35700 55.35700 55.35700 24.90720 26.17450 28.45230
37 57.14300 57.14300 57.14300 26.92610 28.39370 31.18610
38 58.92900 58.92900 58.92900 28.47110 30.02510 32.96440
39 60.71400 60.71400 60.71400 30.51570 31.99080 35.15090
40 62.50000 62.50000 62.50000 32.45930 33.96140 37.33850
41 64.28600 64.28600 64.28600 34.38690 36.22990 39.53180
42 66.07100 66.07100 66.07100 36.85310 38.87830 41.72720
43 67.85700 67.85700 67.85700 38.91450 41.01660 44.59460
44 69.64300 69.64300 69.64300 41.33990 43.45520 47.05750
45 71.42900 71.42900 71.42900 43.52460 45.85790 49.92870
46 73.21400 73.21400 73.21400 46.62360 49.09100 53.34910
47 75.00000 75.00000 75.00000 48.85810 51.21890 56.07910
48 76.78600 76.78600 76.78600 51.72790 54.17010 59.76740
49 78.57100 78.57100 78.57100 54.04810 56.66550 62.09690
50 80.35700 80.35700 80.35700 56.53100 59.48640 64.97320
51 82.14300 82.14300 82.14300 59.48890 62.58880 68.25690
52 83.92900 83.92900 83.92900 62.34590 65.69600 71.54160
53 85.71400 85.71400 85.71400 65.61070 69.11270 75.09950
54 87.50000 87.50000 87.50000 69.03580 72.61630 79.47070
55 89.28600 89.28600 89.28600 72.29630 76.08490 82.89400
56 91.07100 91.07100 91.07100 75.66030 79.78740 86.04970
57 92.85700 92.85700 92.85700 79.10140 83.44780 90.15270
58 94.64300 94.64300 94.64300 82.63560 87.28190 93.58030
59 96.42900 96.42900 96.42900 87.02020 91.71500 99.72210
60 98.21400 98.21400 98.21400 89.68610 94.51140 103.2740
61 0.000000 0.000000 14.28570 0.494350 0.331289 1.869690
62 0.000000 0.000000 28.57140 1.335590 0.771582 6.465880
63 0.000000 0.000000 42.85710 2.856480 1.582100 14.78410
64 0.000000 0.000000 57.14290 5.206360 2.886500 27.65790
65 0.000000 0.000000 71.42860 8.408780 4.662300 45.14740
66 0.000000 0.000000 85.71430 12.63290 7.101580 68.19740
67 0.000000 0.000000 100.0000 17.96190 10.44490 97.35380
68 0.000000 14.28570 0.000000 0.731324 1.331700 0.366753
69 0.000000 14.28570 14.28570 1.040710 1.486010 2.085920
70 0.000000 14.28570 28.57140 1.900110 1.941570 6.753700
71 0.000000 14.28570 42.85710 3.427700 2.752550 15.10640
72 0.000000 14.28570 57.14290 5.795510 4.058690 28.08110
73 0.000000 14.28570 71.42860 9.000900 5.822720 45.57030
74 0.000000 14.28570 85.71430 13.06360 8.281230 67.94450
75 0.000000 14.28570 100.0000 18.54430 11.60300 97.64130
76 0.000000 28.57140 0.000000 2.174180 4.407250 0.836130
77 0.000000 28.57140 14.28570 2.489990 4.560570 2.568730
78 0.000000 28.57140 28.57140 3.356120 5.033020 7.265630
79 0.000000 28.57140 42.85710 4.859250 5.806220 15.57160
80 0.000000 28.57140 57.14290 7.238200 7.128710 28.53210
81 0.000000 28.57140 71.42860 10.45180 8.896170 46.02130
82 0.000000 28.57140 85.71430 14.62340 11.35530 68.93670
83 0.000000 28.57140 100.0000 19.98520 14.73020 98.09340
84 0.000000 42.85710 0.000000 4.841020 10.05030 1.686790
85 0.000000 42.85710 14.28570 5.134110 10.17860 3.420600
86 0.000000 42.85710 28.57140 6.030220 10.61320 8.104390
87 0.000000 42.85710 42.85710 7.542360 11.42550 16.53640
88 0.000000 42.85710 57.14290 9.866710 12.69080 29.42570
89 0.000000 42.85710 71.42860 13.00580 14.47320 46.50920
90 0.000000 42.85710 85.71430 17.21440 16.90050 69.69470
91 0.000000 42.85710 100.0000 22.57780 20.26580 98.98680
92 0.000000 57.14290 0.000000 9.019120 18.88460 2.998670
93 0.000000 57.14290 14.28570 9.281020 18.98240 4.759610
94 0.000000 57.14290 28.57140 10.18370 19.45020 9.479430
95 0.000000 57.14290 42.85710 11.74550 20.32620 17.89550
96 0.000000 57.14290 57.14290 14.09660 21.59220 30.90940
97 0.000000 57.14290 71.42860 17.15730 23.26810 47.85610
98 0.000000 57.14290 85.71430 21.31300 25.71590 70.50020
99 0.000000 57.14290 100.0000 26.80280 29.14500 100.7410
100 0.000000 71.42860 0.000000 14.51220 30.43080 4.662900
101 0.000000 71.42860 14.28570 14.83940 30.55270 6.434980
102 0.000000 71.42860 28.57140 15.70630 31.04940 11.16670
103 0.000000 71.42860 42.85710 17.24610 31.87260 19.59450
104 0.000000 71.42860 57.14290 19.50990 33.03170 32.42980
105 0.000000 71.42860 71.42860 22.64900 34.81420 49.51330
106 0.000000 71.42860 85.71430 26.96490 37.34900 72.97090
107 0.000000 71.42860 100.0000 32.19640 40.55390 101.9900
108 0.000000 85.71430 0.000000 21.82620 45.68110 6.823840
109 0.000000 85.71430 14.28570 22.10000 45.77930 8.640440
110 0.000000 85.71430 28.57140 22.96800 46.27600 13.37740
111 0.000000 85.71430 42.85710 24.52300 47.06970 21.69700
112 0.000000 85.71430 57.14290 26.97520 48.44310 34.95470
113 0.000000 85.71430 71.42860 29.89490 49.98820 51.76480
114 0.000000 85.71430 85.71430 34.14860 52.57330 74.81720
115 0.000000 85.71430 100.0000 39.55390 55.78340 104.6480
116 0.000000 100.0000 0.000000 31.52000 65.88160 9.641090
117 0.000000 100.0000 14.28570 31.80070 65.98000 11.48980
118 0.000000 100.0000 28.57140 32.60610 66.31840 16.27780
119 0.000000 100.0000 42.85710 34.21990 67.30020 24.70800
120 0.000000 100.0000 57.14290 36.60110 68.53720 37.68320
121 0.000000 100.0000 71.42860 39.60330 70.13700 54.76460
122 0.000000 100.0000 85.71430 43.73000 72.58390 77.27350
123 0.000000 100.0000 100.0000 49.30050 75.90330 107.6470
124 7.142860 7.142860 21.42860 1.238760 0.982690 3.879680
125 7.142860 7.142860 35.71430 2.348070 1.567950 9.947290
126 7.142860 7.142860 50.00000 4.354700 2.647520 20.90990
127 7.142860 7.142860 64.28570 7.059460 4.139720 35.66160
128 7.142860 7.142860 78.57140 10.85600 6.308610 56.40610
129 7.142860 7.142860 92.85710 15.35130 8.997590 80.81380
130 7.142860 21.42860 7.142860 1.660670 2.807340 1.100250
131 7.142860 21.42860 21.42860 2.228490 3.101220 4.198000
132 7.142860 21.42860 35.71430 3.378300 3.733000 10.38380
133 7.142860 21.42860 50.00000 5.360820 4.795200 21.20450
134 7.142860 21.42860 64.28570 8.097560 6.278080 36.09880
135 7.142860 21.42860 78.57140 11.75700 8.443610 56.30240
136 7.142860 21.42860 92.85710 16.33620 11.13510 81.11600
137 7.142860 35.71430 7.142860 3.689540 7.113360 1.765950
138 7.142860 35.71430 21.42860 4.264460 7.411830 4.895340
139 7.142860 35.71430 35.71430 5.379940 7.990820 11.01090
140 7.142860 35.71430 50.00000 7.406480 9.083320 22.04470
141 7.142860 35.71430 64.28570 10.06090 10.53990 36.43190
142 7.142860 35.71430 78.57140 13.84000 12.69270 57.04070
143 7.142860 35.71430 92.85710 18.34990 15.37340 81.85470
144 7.142860 50.00000 7.142860 7.188180 14.53890 2.881610
145 7.142860 50.00000 21.42860 7.748070 14.86200 6.049730
146 7.142860 50.00000 35.71430 8.899540 15.44940 12.17550
147 7.142860 50.00000 50.00000 10.90410 16.48080 23.08280
148 7.142860 50.00000 64.28570 13.62740 18.00440 38.03020
149 7.142860 50.00000 78.57140 17.36940 20.16340 58.36840
150 7.142860 50.00000 92.85710 21.85620 22.84540 83.04720
151 7.142860 64.28570 7.142860 11.87460 24.44460 4.324490
152 7.142860 64.28570 21.42860 12.45200 24.68620 7.509440
153 7.142860 64.28570 35.71430 13.56230 25.16800 13.67140
154 7.142860 64.28570 50.00000 15.52840 26.22830 24.57850
155 7.142860 64.28570 64.28570 18.14020 27.69640 39.11950
156 7.142860 64.28570 78.57140 21.91120 29.85630 59.59300
157 7.142860 64.28570 92.85710 26.56310 32.64750 84.81450
158 7.142860 78.57140 7.142860 18.15540 37.57850 6.235690
159 7.142860 78.57140 21.42860 18.78010 37.92580 9.413070
160 7.142860 78.57140 35.71430 19.95960 38.64820 15.62010
161 7.142860 78.57140 50.00000 21.92640 39.70850 26.53020
162 7.142860 78.57140 64.28570 24.63540 41.14950 41.34550
163 7.142860 78.57140 78.57140 28.24970 43.09620 61.54540
164 7.142860 78.57140 92.85710 32.97070 46.02380 87.03980
165 7.142860 92.85710 7.142860 26.65390 55.34480 8.732170
166 7.142860 92.85710 21.42860 27.26240 55.63950 11.94820
167 7.142860 92.85710 35.71430 28.42500 56.30920 18.19070
168 7.142860 92.85710 50.00000 30.36840 57.36880 28.99140
169 7.142860 92.85710 64.28570 33.09810 58.81050 43.90350
170 7.142860 92.85710 78.57140 36.68350 60.75630 63.96810
171 7.142860 92.85710 92.85710 41.35570 63.65240 89.05570
172 14.28570 0.000000 0.000000 0.974915 0.582838 0.211343
173 14.28570 0.000000 14.28570 1.297880 0.749600 1.885420
174 14.28570 0.000000 28.57140 2.160170 1.201080 6.514290
175 14.28570 0.000000 42.85710 3.698700 2.017350 14.86510
176 14.28570 0.000000 57.14290 6.092910 3.330920 27.92890
177 14.28570 0.000000 71.42860 9.191940 5.100070 44.87700
178 14.28570 0.000000 85.71430 13.42620 7.544290 67.92700
179 14.28570 0.000000 100.0000 18.86680 10.92150 97.35420
180 14.28570 14.28570 0.000000 1.524760 1.766780 0.394827
181 14.28570 14.28570 28.57140 2.718590 2.382940 6.763480
182 14.28570 14.28570 42.85710 4.265860 3.206580 15.12370
183 14.28570 14.28570 57.14290 6.691100 4.529770 28.35260
184 14.28570 14.28570 71.42860 9.755880 6.293330 45.16530
185 14.28570 14.28570 85.71430 13.96060 8.731180 67.94440
186 14.28570 14.28570 100.0000 19.54010 12.15030 98.31990
187 14.28570 28.57140 0.000000 2.997350 4.899010 0.872008
188 14.28570 28.57140 14.28570 3.326890 5.053070 2.596950
189 14.28570 28.57140 28.57140 4.208690 5.531440 7.288440
190 14.28570 28.57140 42.85710 5.739810 6.344630 15.65380
191 14.28570 28.57140 57.14290 8.095180 7.651090 28.53380
192 14.28570 28.57140 71.42860 11.21570 9.398130 45.61690
193 14.28570 28.57140 85.71430 15.53630 11.87850 68.93780
194 14.28570 28.57140 100.0000 21.00110 15.28520 98.77190
195 14.28570 42.85710 0.000000 5.678710 10.56190 1.725760
196 14.28570 42.85710 14.28570 5.978740 10.69710 3.455470
197 14.28570 42.85710 28.57140 6.890990 11.15560 8.162950
198 14.28570 42.85710 42.85710 8.429830 11.97880 16.58620
199 14.28570 42.85710 57.14290 10.74400 13.24370 29.42770
200 14.28570 42.85710 71.42860 13.96560 15.08080 46.78260
201 14.28570 42.85710 85.71430 18.03870 17.47400 69.15540
202 14.28570 42.85710 100.0000 23.51790 20.84280 98.98870
203 14.28570 57.14290 0.000000 9.905520 19.43780 3.043350
204 14.28570 57.14290 14.28570 10.21640 19.64140 4.804400
205 14.28570 57.14290 28.57140 11.11830 20.10910 9.520300
206 14.28570 57.14290 42.85710 12.59030 20.90810 17.92480
207 14.28570 57.14290 57.14290 15.02750 22.19890 31.04750
208 14.28570 57.14290 71.42860 18.14190 23.92850 48.13020
209 14.28570 57.14290 85.71430 22.30670 26.34670 70.63820
210 14.28570 57.14290 100.0000 27.91300 29.85350 101.0150
211 14.28570 71.42860 0.000000 15.36230 31.01290 4.716860
212 14.28570 71.42860 14.28570 15.73950 31.24060 6.494280
213 14.28570 71.42860 28.57140 16.56600 31.54970 11.20120
214 14.28570 71.42860 42.85710 18.13430 32.47800 19.53330
215 14.28570 71.42860 57.14290 20.49440 33.69220 32.70400
216 14.28570 71.42860 71.42860 23.55520 35.36800 49.65070
217 14.28570 71.42860 85.71430 27.92530 38.03090 72.83910
218 14.28570 71.42860 100.0000 33.18580 41.23670 101.9940
219 14.28570 85.71430 0.000000 22.63760 46.29210 6.876780
220 14.28570 85.71430 14.28570 23.03340 46.43830 8.676200
221 14.28570 85.71430 28.57140 23.79970 46.72330 13.39570
222 14.28570 85.71430 42.85710 25.31320 47.54580 21.70030
223 14.28570 85.71430 57.14290 27.82780 48.94320 34.95600
224 14.28570 85.71430 71.42860 30.71850 50.48740 51.63070
225 14.28570 85.71430 85.71430 34.96600 52.96020 74.41000
226 14.28570 85.71430 100.0000 40.63940 56.43910 104.9210
227 14.28570 100.0000 0.000000 32.22790 66.28090 9.668080
228 14.28570 100.0000 14.28570 32.74030 66.63910 11.55430
229 14.28570 100.0000 28.57140 33.51510 66.92440 16.31370
230 14.28570 100.0000 42.85710 35.11910 67.85380 24.81230
231 14.28570 100.0000 57.14290 37.45370 69.03730 37.68450
232 14.28570 100.0000 71.42860 40.71540 71.00980 55.17710
233 14.28570 100.0000 85.71430 44.67440 73.10890 77.40990
234 14.28570 100.0000 100.0000 50.12040 76.52890 106.9730
235 21.42860 7.142860 7.142860 2.201400 1.488560 0.821151
236 21.42860 7.142860 21.42860 2.772220 1.783710 3.909530
237 21.42860 7.142860 35.71430 3.917640 2.391610 10.03090
238 21.42860 7.142860 50.00000 5.910840 3.473750 20.85610
239 21.42860 7.142860 64.28570 8.647620 4.974160 35.79770
240 21.42860 7.142860 78.57140 12.43600 7.139690 56.40670
241 21.42860 7.142860 92.85710 17.10920 9.879980 81.49140
242 21.42860 21.42860 7.142860 3.213370 3.645630 1.156990
243 21.42860 21.42860 35.71430 4.941810 4.558090 10.39910
244 21.42860 21.42860 50.00000 6.941330 5.635700 21.27900
245 21.42860 21.42860 64.28570 9.666640 7.120150 36.09970
246 21.42860 21.42860 78.57140 13.45880 9.271710 56.70840
247 21.42860 21.42860 92.85710 18.07520 12.06400 81.65910
248 21.42860 35.71430 7.142860 5.256400 7.970520 1.820780
249 21.42860 35.71430 21.42860 5.844160 8.261440 4.975770
250 21.42860 35.71430 35.71430 6.977270 8.855810 11.12490
251 21.42860 35.71430 50.00000 8.973780 9.935200 21.95230
252 21.42860 35.71430 64.28570 11.71090 11.44480 36.83980
253 21.42860 35.71430 78.57140 15.42730 13.56090 57.04190
254 21.42860 35.71430 92.85710 20.07000 16.38180 82.39950
255 21.42860 50.00000 7.142860 8.729400 15.38550 2.934220
256 21.42860 50.00000 21.42860 9.324100 15.67980 6.085700
257 21.42860 50.00000 35.71430 10.50070 16.32000 12.21440
258 21.42860 50.00000 50.00000 12.47520 17.29840 23.09570
259 21.42860 50.00000 64.28570 15.10900 18.81930 37.62480
260 21.42860 50.00000 78.57140 18.96250 21.03380 58.36960
261 21.42860 50.00000 92.85710 23.48310 23.73900 82.91290
262 21.42860 64.28570 7.142860 13.40320 25.15670 4.367480
263 21.42860 64.28570 21.42860 13.99130 25.53280 7.553080
264 21.42860 64.28570 35.71430 15.06510 26.04350 13.72390
265 21.42860 64.28570 50.00000 17.15670 27.15180 24.62990
266 21.42860 64.28570 64.28570 19.90340 28.69830 39.39270
267 21.42860 64.28570 78.57140 23.56710 30.75070 59.59410
268 21.42860 64.28570 92.85710 28.19490 33.56340 84.40950
269 21.42860 78.57140 7.142860 19.69550 38.42520 6.283230
270 21.42860 78.57140 21.42860 20.37050 38.87820 9.466560
271 21.42860 78.57140 35.71430 21.56630 39.51900 15.68480
272 21.42860 78.57140 50.00000 23.53130 40.57920 26.58680
273 21.42860 78.57140 64.28570 26.20380 41.96700 41.34600
274 21.42860 78.57140 78.57140 29.86750 44.01950 61.54730
275 21.42860 78.57140 92.85710 34.54890 46.88590 86.49880
276 21.42860 92.85710 7.142860 28.19670 56.19150 8.791960
277 21.42860 92.85710 21.42860 28.83450 56.53920 12.03050
278 21.42860 92.85710 35.71430 30.01220 57.12730 18.27860
279 21.42860 92.85710 50.00000 31.96570 58.18720 29.12710
280 21.42860 92.85710 64.28570 34.63320 59.67910 43.63410
281 21.42860 92.85710 78.57140 38.50650 61.92420 64.65050
282 21.42860 92.85710 92.85710 42.93340 64.44020 88.92000
283 28.57140 0.000000 0.000000 3.138420 1.707090 0.274003
284 28.57140 0.000000 14.28570 3.504590 1.896270 1.965900
285 28.57140 0.000000 28.57140 4.377530 2.350630 6.604170
286 28.57140 0.000000 42.85710 5.902790 3.173300 14.88990
287 28.57140 0.000000 57.14290 8.277590 4.481770 27.79420
288 28.57140 0.000000 71.42860 11.41790 6.260830 44.87760
289 28.57140 0.000000 85.71430 15.79260 8.733460 68.33350
290 28.57140 0.000000 100.0000 21.32520 12.14870 98.16710
291 28.57140 14.28570 0.000000 3.686810 2.898050 0.458720
292 28.57140 14.28570 14.28570 4.056990 3.089790 2.180590
293 28.57140 14.28570 28.57140 4.935930 3.554830 6.851950
294 28.57140 14.28570 42.85710 6.479410 4.367240 15.19200
295 28.57140 14.28570 57.14290 8.877860 5.689760 28.21800
296 28.57140 14.28570 71.42860 11.97380 7.461950 45.16620
297 28.57140 14.28570 85.71430 16.25300 9.922060 67.94490
298 28.57140 14.28570 100.0000 21.88150 13.38380 98.45630
299 28.57140 28.57140 0.000000 5.170410 6.050940 0.939042
300 28.57140 28.57140 14.28570 5.514130 6.205670 2.665390
301 28.57140 28.57140 42.85710 7.955620 7.514380 15.72110
302 28.57140 28.57140 57.14290 10.36880 8.811330 28.80510
303 28.57140 28.57140 71.42860 13.46890 10.58510 45.61770
304 28.57140 28.57140 85.71430 17.63660 12.99410 68.26100
305 28.57140 28.57140 100.0000 23.19410 16.46950 98.23110
306 28.57140 42.85710 0.000000 7.832740 11.73530 1.796660
307 28.57140 42.85710 14.28570 8.219740 11.88120 3.554710
308 28.57140 42.85710 28.57140 9.075400 12.37750 8.233940
309 28.57140 42.85710 42.85710 10.63570 13.17130 16.57810
310 28.57140 42.85710 57.14290 12.95190 14.43630 29.42910
311 28.57140 42.85710 71.42860 16.15370 16.24280 46.51250
312 28.57140 42.85710 85.71430 20.44070 18.77670 69.83480
313 28.57140 42.85710 100.0000 25.82250 22.08260 98.85450
314 28.57140 57.14290 0.000000 12.03950 20.55390 3.107740
315 28.57140 57.14290 14.28570 12.41750 20.78170 4.888500
316 28.57140 57.14290 28.57140 13.28760 21.19630 9.570320
317 28.57140 57.14290 42.85710 14.73900 21.99470 17.87890
318 28.57140 57.14290 57.14290 17.27350 23.36270 31.04790
319 28.57140 57.14290 71.42860 20.30530 25.03770 47.85940
320 28.57140 57.14290 85.71430 24.57740 27.56330 70.63940
321 28.57140 57.14290 100.0000 30.25080 31.04220 101.1510
322 28.57140 71.42860 0.000000 17.53340 32.10010 4.775560
323 28.57140 71.42860 14.28570 17.93640 32.38080 6.558840
324 28.57140 71.42860 28.57140 18.82110 32.79580 11.30870
325 28.57140 71.42860 42.85710 20.33980 33.61840 19.63810
326 28.57140 71.42860 57.14290 22.74050 34.85600 32.70440
327 28.57140 71.42860 71.42860 25.76310 36.56060 49.65210
328 28.57140 71.42860 85.71430 30.06910 39.10940 72.29670
329 28.57140 71.42860 100.0000 35.67960 42.56430 102.8080
330 28.57140 85.71430 0.000000 24.78460 47.32640 6.937180
331 28.57140 85.71430 14.28570 25.11850 47.44860 8.740650
332 28.57140 85.71430 28.57140 26.03250 47.91670 13.51350
333 28.57140 85.71430 42.85710 27.62480 48.81580 21.77810
334 28.57140 85.71430 57.14290 29.97290 50.11170 34.95750
335 28.57140 85.71430 71.42860 33.09650 51.81160 51.90410
336 28.57140 85.71430 85.71430 37.41300 54.42070 74.95640
337 28.57140 85.71430 100.0000 42.86140 57.62430 104.5160
338 28.57140 100.0000 0.000000 34.42270 67.42090 9.722920
339 28.57140 100.0000 14.28570 34.89620 67.80790 11.60680
340 28.57140 100.0000 28.57140 35.70830 68.06440 16.36100
341 28.57140 100.0000 42.85710 37.28050 68.94070 24.82520
342 28.57140 100.0000 57.14290 39.61220 70.12410 37.68440
343 28.57140 100.0000 71.42860 42.83390 71.96120 55.03920
344 28.57140 100.0000 85.71430 46.80400 74.19490 77.27440
345 28.57140 100.0000 100.0000 52.42010 77.74640 107.1100
346 35.71430 7.142860 7.142860 5.193930 3.049890 0.915956
347 35.71430 7.142860 21.42860 5.792430 3.359420 4.036430
348 35.71430 7.142860 35.71430 6.937430 3.954310 10.15780
349 35.71430 7.142860 50.00000 8.918710 5.032580 21.02040
350 35.71430 7.142860 64.28570 11.66930 6.550180 35.93410
351 35.71430 7.142860 78.57140 15.38000 8.708790 56.00150
352 35.71430 7.142860 92.85710 20.12380 11.46820 81.49250
353 35.71430 21.42860 7.142860 6.210040 5.233730 1.253890
354 35.71430 21.42860 21.42860 6.773620 5.517080 4.370460
355 35.71430 21.42860 35.71430 7.930410 6.123300 10.50510
356 35.71430 21.42860 50.00000 9.906920 7.203120 21.32640
357 35.71430 21.42860 64.28570 12.66310 8.722290 36.10130
358 35.71430 21.42860 78.57140 16.45870 10.89190 56.71030
359 35.71430 21.42860 92.85710 20.93790 13.59150 81.11830
360 35.71430 35.71430 7.142860 8.182140 9.494870 1.901480
361 35.71430 35.71430 21.42860 8.767890 9.793470 5.038800
362 35.71430 35.71430 50.00000 11.94160 11.47740 22.11490
363 35.71430 35.71430 64.28570 14.63370 12.96470 36.70500
364 35.71430 35.71430 78.57140 18.42930 15.17750 57.17930
365 35.71430 35.71430 92.85710 23.06140 17.93820 82.12920
366 35.71430 50.00000 7.142860 11.76140 16.97310 3.032820
367 35.71430 50.00000 21.42860 12.38260 17.32030 6.193330
368 35.71430 50.00000 35.71430 13.47290 17.88360 12.32720
369 35.71430 50.00000 50.00000 15.40280 18.89060 23.17930
370 35.71430 50.00000 64.28570 18.28100 20.56740 38.03410
371 35.71430 50.00000 78.57140 22.02730 22.67450 58.50680
372 35.71430 50.00000 92.85710 26.54790 25.37970 83.05010
373 35.71430 64.28570 7.142860 16.42260 26.82590 4.471910
374 35.71430 64.28570 21.42860 17.02750 27.12050 7.671100
375 35.71430 64.28570 35.71430 18.02910 27.52480 13.73380
376 35.71430 64.28570 50.00000 20.02150 28.63790 24.64880
377 35.71430 64.28570 64.28570 22.88560 30.28440 39.25850
378 35.71430 64.28570 78.57140 26.70530 32.47570 60.13880
379 35.71430 64.28570 92.85710 31.18150 35.09740 84.40980
380 35.71430 78.57140 7.142860 22.84980 40.27710 6.380680
381 35.71430 78.57140 21.42860 23.36070 40.36020 9.598350
382 35.71430 78.57140 35.71430 24.48290 40.97670 15.76650
383 35.71430 78.57140 50.00000 26.54310 42.11400 26.70530
384 35.71430 78.57140 64.28570 29.29320 43.66060 41.48390
385 35.71430 78.57140 78.57140 32.93230 45.66010 61.68450
386 35.71430 78.57140 92.85710 37.69630 48.58120 86.90730
387 35.71430 92.85710 7.142860 31.22650 57.77900 8.880370
388 35.71430 92.85710 21.42860 31.83150 58.15570 12.14470
389 35.71430 92.85710 35.71430 33.06000 58.84960 18.40140
390 35.71430 92.85710 50.00000 35.02620 59.87990 29.12980
391 35.71430 92.85710 64.28570 37.79600 61.45700 44.17960
392 35.71430 92.85710 78.57140 41.34130 63.26730 64.10650
393 35.71430 92.85710 92.85710 46.03200 66.10410 88.92170
394 42.85710 0.000000 0.000000 7.032320 3.733420 0.383356
395 42.85710 0.000000 14.28570 7.396730 3.920860 2.081330
396 42.85710 0.000000 28.57140 8.280820 4.383110 6.700650
397 42.85710 0.000000 42.85710 9.809650 5.192610 15.01350
398 42.85710 0.000000 57.14290 12.20510 6.506470 28.06590
399 42.85710 0.000000 71.42860 15.35540 8.300160 45.01400
400 42.85710 0.000000 85.71430 19.68480 10.76770 68.19910
401 42.85710 0.000000 100.0000 25.26710 14.21200 98.30390
402 42.85710 14.28570 0.000000 7.593700 4.950880 0.571771
403 42.85710 14.28570 14.28570 7.963320 5.134460 2.300660
404 42.85710 14.28570 28.57140 8.825720 5.590760 6.962570
405 42.85710 14.28570 42.85710 10.36430 6.405490 15.24420
406 42.85710 14.28570 57.14290 12.79770 7.742560 28.35480
407 42.85710 14.28570 71.42860 15.94530 9.541960 45.30300
408 42.85710 14.28570 85.71430 20.18050 11.97980 68.08170
409 42.85710 14.28570 100.0000 25.74730 15.42550 97.91560
410 42.85710 28.57140 0.000000 9.069190 8.117200 1.056830
411 42.85710 28.57140 14.28570 9.417470 8.291180 2.808840
412 42.85710 28.57140 28.57140 10.25250 8.728410 7.468370
413 42.85710 28.57140 42.85710 11.85940 9.567400 15.86550
414 42.85710 28.57140 57.14290 14.19840 10.87900 28.67190
415 42.85710 28.57140 71.42860 17.37370 12.63410 45.75460
416 42.85710 28.57140 85.71430 21.62110 15.10690 68.53390
417 42.85710 28.57140 100.0000 27.29450 18.58580 99.04510
418 42.85710 42.85710 0.000000 11.73400 13.74130 1.909080
419 42.85710 42.85710 14.28570 12.07940 13.91590 3.652220
420 42.85710 42.85710 28.57140 12.88170 14.30640 8.311010
421 42.85710 42.85710 57.14290 16.76630 16.41760 29.43000
422 42.85710 42.85710 71.42860 20.13340 18.33330 47.05610
423 42.85710 42.85710 85.71430 24.21570 20.69680 69.29270
424 42.85710 42.85710 100.0000 29.87420 24.16750 99.26170
425 42.85710 57.14290 0.000000 15.92780 22.64170 3.224570
426 42.85710 57.14290 14.28570 16.31970 22.78770 5.005500
427 42.85710 57.14290 28.57140 17.14700 23.23100 9.666630
428 42.85710 57.14290 42.85710 18.70890 24.02490 18.01850
429 42.85710 57.14290 57.14290 21.08800 25.34400 31.04880
430 42.85710 57.14290 71.42860 24.26520 27.09760 48.13150
431 42.85710 57.14290 85.71430 28.39190 29.54460 70.64030
432 42.85710 57.14290 100.0000 34.02580 32.96230 100.6090
433 42.85710 71.42860 0.000000 21.42020 34.18780 4.885460
434 42.85710 71.42860 14.28570 21.78120 34.36290 6.701370
435 42.85710 71.42860 28.57140 22.65400 34.77760 11.39560
436 42.85710 71.42860 42.85710 24.31710 35.73100 19.87710
437 42.85710 71.42860 57.14290 26.57960 36.89010 32.70610
438 42.85710 71.42860 71.42860 29.80620 38.74950 49.79030
439 42.85710 71.42860 85.71430 34.14050 41.22490 72.97540
440 42.85710 71.42860 100.0000 39.43480 44.45380 101.9950
441 42.85710 85.71430 0.000000 28.70800 49.38530 7.038590
442 42.85710 85.71430 14.28570 29.12290 49.66630 8.877710
443 42.85710 85.71430 28.57140 30.00590 50.08130 13.61950
444 42.85710 85.71430 42.85710 31.54220 50.95650 21.91650
445 42.85710 85.71430 57.14290 33.88840 52.08820 34.95740
446 42.85710 85.71430 71.42860 36.99850 53.86980 51.90560
447 42.85710 85.71430 85.71430 41.27060 56.39540 74.68570
448 42.85710 85.71430 100.0000 46.70540 59.68070 104.2470
449 42.85710 100.0000 0.000000 38.37420 69.53270 9.841270
450 42.85710 100.0000 14.28570 38.88290 69.89080 11.71010
451 42.85710 100.0000 28.57140 39.73290 70.33480 16.47770
452 42.85710 100.0000 42.85710 41.15140 70.89370 24.91050
453 42.85710 100.0000 57.14290 43.52960 72.26490 37.82280
454 42.85710 100.0000 71.42860 46.89240 74.23260 55.31440
455 42.85710 100.0000 85.71430 50.82240 76.33090 77.41190
456 42.85710 100.0000 100.0000 56.49210 79.93610 107.3830
457 50.00000 7.142860 7.142860 10.33630 5.724950 1.049460
458 50.00000 7.142860 21.42860 10.90770 6.027340 4.172160
459 50.00000 7.142860 35.71430 12.06490 6.634440 10.26750
460 50.00000 7.142860 50.00000 14.07700 7.718960 21.16420
461 50.00000 7.142860 64.28570 16.67170 9.193220 35.66500
462 50.00000 7.142860 78.57140 20.55320 11.41270 56.13860
463 50.00000 7.142860 92.85710 25.19340 14.14450 80.95230
464 50.00000 21.42860 7.142860 11.31750 7.910780 1.397180
465 50.00000 21.42860 21.42860 11.89880 8.210060 4.518870
466 50.00000 21.42860 35.71430 13.04510 8.804230 10.66210
467 50.00000 21.42860 50.00000 15.05210 9.902020 21.55140
468 50.00000 21.42860 64.28570 17.88940 11.46180 36.37410
469 50.00000 21.42860 78.57140 21.58700 13.56000 56.57600
470 50.00000 21.42860 92.85710 26.22410 16.34300 81.25520
471 50.00000 35.71430 7.142860 13.31050 12.22640 2.061880
472 50.00000 35.71430 21.42860 13.95350 12.55520 5.211120
473 50.00000 35.71430 35.71430 15.04640 13.11450 11.33220
474 50.00000 35.71430 50.00000 17.10630 14.17560 22.23970
475 50.00000 35.71430 64.28570 19.81890 15.72100 36.84300
476 50.00000 35.71430 78.57140 23.70630 17.95880 57.45240
477 50.00000 35.71430 92.85710 28.20220 20.61110 81.99490
478 50.00000 50.00000 7.142860 16.94930 19.72950 3.183200
479 50.00000 50.00000 21.42860 17.48360 19.99980 6.346130
480 50.00000 50.00000 35.71430 18.70150 20.61130 12.48890
481 50.00000 50.00000 64.28570 23.33430 23.16340 37.89920
482 50.00000 50.00000 78.57140 27.21250 25.43080 58.64480
483 50.00000 50.00000 92.85710 31.65480 28.02940 83.05130
484 50.00000 64.28570 7.142860 21.64770 29.55350 4.616920
485 50.00000 64.28570 21.42860 22.09720 29.74690 7.792030
486 50.00000 64.28570 35.71430 23.27250 30.38710 13.91450
487 50.00000 64.28570 50.00000 25.26600 31.41820 24.77050
488 50.00000 64.28570 64.28570 28.04120 32.96550 39.66650
489 50.00000 64.28570 78.57140 31.73880 35.04110 59.73240
490 50.00000 64.28570 92.85710 36.36660 37.85380 84.54780
491 50.00000 78.57140 7.142860 27.85060 42.74500 6.522980
492 50.00000 78.57140 21.42860 28.46120 43.03970 9.748620
493 50.00000 78.57140 35.71430 29.61990 43.62730 15.90850
494 50.00000 78.57140 50.00000 31.67040 44.76440 26.80160
495 50.00000 78.57140 64.28570 34.46300 46.33440 41.48490
496 50.00000 78.57140 78.57140 38.03920 48.30990 61.68570
497 50.00000 78.57140 92.85710 42.70090 51.14570 86.36560
498 50.00000 92.85710 7.142860 36.31810 60.45820 8.989150
499 50.00000 92.85710 21.42860 37.01740 60.91200 12.28600
500 50.00000 92.85710 35.71430 38.21220 61.55280 18.49970
501 50.00000 92.85710 50.00000 40.16210 62.53040 29.26620
502 50.00000 92.85710 64.28570 42.91640 64.02500 44.17910
503 50.00000 92.85710 78.57140 46.50190 65.97080 64.24370
504 50.00000 92.85710 92.85710 51.21720 68.86040 89.05970
505 57.14290 0.000000 0.000000 12.78800 6.733260 0.534606
506 57.14290 0.000000 14.28570 13.24250 6.959880 2.226170
507 57.14290 0.000000 28.57140 14.00360 7.372470 6.832600
508 57.14290 0.000000 42.85710 15.60310 8.212580 15.20300
509 57.14290 0.000000 57.14290 17.96650 9.515610 28.06760
510 57.14290 0.000000 71.42860 21.22840 11.32230 45.42150
511 57.14290 0.000000 85.71430 25.40290 13.78190 67.79460
512 57.14290 0.000000 100.0000 30.97390 17.17560 97.76300
513 57.14290 14.28570 0.000000 13.36630 7.970040 0.725804
514 57.14290 14.28570 14.28570 13.70840 8.145480 2.458900
515 57.14290 14.28570 28.57140 14.60370 8.606790 7.107140
516 57.14290 14.28570 42.85710 16.19700 9.450760 15.47280
517 57.14290 14.28570 57.14290 18.55490 10.76110 28.35670
518 57.14290 14.28570 71.42860 21.68690 12.54890 45.44040
519 57.14290 14.28570 85.71430 25.95590 15.00550 68.21910
520 57.14290 14.28570 100.0000 31.50290 18.42060 97.78150
521 57.14290 28.57140 0.000000 14.96960 11.19430 1.211550
522 57.14290 28.57140 14.28570 15.25270 11.34280 2.944500
523 57.14290 28.57140 28.57140 16.08350 11.78490 7.613970
524 57.14290 28.57140 42.85710 17.63770 12.58640 15.97670
525 57.14290 28.57140 57.14290 20.09170 13.93260 29.07980
526 57.14290 28.57140 71.42860 23.21180 15.68380 45.89180
527 57.14290 28.57140 85.71430 27.49320 18.17980 68.53570
528 57.14290 28.57140 100.0000 33.05500 21.60320 98.64030
529 57.14290 42.85710 0.000000 17.53850 16.82000 2.068360
530 57.14290 42.85710 14.28570 18.03930 17.09570 3.835540
531 57.14290 42.85710 28.57140 18.75460 17.40920 8.496300
532 57.14290 42.85710 42.85710 20.40870 18.28020 16.87050
533 57.14290 42.85710 57.14290 22.72090 19.54510 29.70320
534 57.14290 42.85710 71.42860 26.03440 21.40710 47.19320
535 57.14290 42.85710 85.71430 30.07850 23.79940 69.43070
536 57.14290 42.85710 100.0000 35.76600 27.27090 99.53510
537 57.14290 57.14290 0.000000 21.74400 25.63860 3.373820
538 57.14290 57.14290 14.28570 22.06900 25.76050 5.135720
539 57.14290 57.14290 28.57140 22.92550 26.17470 9.754290
540 57.14290 57.14290 42.85710 24.46190 26.99780 18.16580
541 57.14290 57.14290 71.42860 30.14780 30.23070 48.54100
542 57.14290 57.14290 85.71430 34.20540 32.54140 70.77680
543 57.14290 57.14290 100.0000 39.80600 36.01030 100.4750
544 57.14290 71.42860 0.000000 27.22650 37.26650 5.053120
545 57.14290 71.42860 14.28570 27.61870 37.41260 6.835490
546 57.14290 71.42860 28.57140 28.53220 37.88070 11.60570
547 57.14290 71.42860 42.85710 30.08090 38.67420 19.89550
548 57.14290 71.42860 57.14290 32.41780 39.93980 32.84340
549 57.14290 71.42860 71.42860 35.55680 41.72230 49.92690
550 57.14290 71.42860 85.71430 39.92560 44.29510 72.57140
551 57.14290 71.42860 100.0000 45.35560 47.55820 102.4030
552 57.14290 85.71430 0.000000 34.45150 52.43990 7.207010
553 57.14290 85.71430 14.28570 34.85240 52.58630 9.029960
554 57.14290 85.71430 28.57140 35.75840 53.05410 13.76510
555 57.14290 85.71430 42.85710 37.34660 53.90090 22.12500
556 57.14290 85.71430 57.14290 39.90770 55.40400 35.36900
557 57.14290 85.71430 71.42860 42.89020 56.97320 52.17890
558 57.14290 85.71430 85.71430 47.13340 59.49800 74.82370
559 57.14290 85.71430 100.0000 52.86960 63.00090 105.3350
560 57.14290 100.0000 0.000000 44.11830 72.58740 10.01220
561 57.14290 100.0000 14.28570 44.58690 72.75800 11.85770
562 57.14290 100.0000 28.57140 45.46420 73.25490 16.63810
563 57.14290 100.0000 42.85710 46.97790 74.02520 25.05810
564 57.14290 100.0000 57.14290 49.28950 75.20790 37.82330
565 57.14290 100.0000 71.42860 52.62760 77.12280 55.31410
566 57.14290 100.0000 85.71430 56.51950 79.24990 77.41250
567 57.14290 100.0000 100.0000 62.36350 82.93470 107.7900
568 64.28570 7.142860 7.142860 16.74580 9.077310 1.217860
569 64.28570 7.142860 21.42860 17.38170 9.405290 4.329750
570 64.28570 7.142860 35.71430 18.51310 9.999630 10.40740
571 64.28570 7.142860 50.00000 20.52970 11.09000 21.29560
572 64.28570 7.142860 64.28570 23.34260 12.63780 35.93730
573 64.28570 7.142860 78.57140 27.09640 14.81060 56.41120
574 64.28570 7.142860 92.85710 31.70920 17.54050 81.08960
575 64.28570 21.42860 7.142860 17.83900 11.30580 1.554400
576 64.28570 21.42860 21.42860 18.35890 11.58000 4.676160
577 64.28570 21.42860 35.71430 19.60950 12.23040 10.77250
578 64.28570 21.42860 50.00000 21.50090 13.26940 21.64310
579 64.28570 21.42860 64.28570 24.34440 14.85810 36.24090
580 64.28570 21.42860 78.57140 28.12750 17.00890 56.71410
581 64.28570 21.42860 92.85710 32.90940 19.79620 82.06970
582 64.28570 35.71430 7.142860 19.87560 15.66100 2.225790
583 64.28570 35.71430 21.42860 20.45240 15.96760 5.371040
584 64.28570 35.71430 35.71430 21.65120 16.51120 11.44740
585 64.28570 35.71430 50.00000 23.71960 17.64880 22.42430
586 64.28570 35.71430 64.28570 26.35930 19.16990 36.98100
587 64.28570 35.71430 78.57140 30.28000 21.35650 57.86030
588 64.28570 35.71430 92.85710 34.71800 24.00700 82.13220
589 64.28570 50.00000 7.142860 23.49430 23.17850 3.342640
590 64.28570 50.00000 21.42860 24.00490 23.39590 6.509320
591 64.28570 50.00000 35.71430 25.23750 24.05990 12.60590
592 64.28570 50.00000 50.00000 27.19830 25.06790 23.60270
593 64.28570 50.00000 64.28570 29.85010 26.55930 38.03650
594 64.28570 50.00000 78.57140 33.64570 28.77220 58.51080
595 64.28570 50.00000 92.85710 38.48120 31.61320 84.00250
596 64.28570 64.28570 7.142860 28.04190 32.90150 4.773630
597 64.28570 64.28570 21.42860 28.70500 33.21990 7.951240
598 64.28570 64.28570 35.71430 29.64150 33.60010 14.00300
599 64.28570 64.28570 50.00000 31.71990 34.79010 24.91250
600 64.28570 64.28570 78.57140 38.47340 38.60000 60.54850
601 64.28570 64.28570 92.85710 42.77030 41.11990 84.68370
602 64.28570 78.57140 7.142860 34.48240 46.27090 6.679710
603 64.28570 78.57140 21.42860 35.09300 46.56560 9.905600
604 64.28570 78.57140 35.71430 36.22540 47.18230 16.12160
605 64.28570 78.57140 50.00000 38.12510 48.13630 26.94690
606 64.28570 78.57140 64.28570 40.94980 49.72940 41.48690
607 64.28570 78.57140 78.57140 44.76940 51.92080 62.36720
608 64.28570 78.57140 92.85710 49.12920 54.46470 86.50230
609 64.28570 92.85710 7.142860 43.00980 64.09020 9.196710
610 64.28570 92.85710 21.42860 43.69240 64.40920 12.46510
611 64.28570 92.85710 35.71430 44.65300 64.79010 18.62980
612 64.28570 92.85710 50.00000 46.69760 65.95700 29.67500
613 64.28570 92.85710 64.28570 49.34970 67.36630 44.04510
614 64.28570 92.85710 78.57140 53.34430 69.71150 64.92660
615 64.28570 92.85710 92.85710 57.63010 72.09680 89.05940
616 71.42860 0.000000 0.000000 20.83270 10.91430 0.726993
617 71.42860 0.000000 14.28570 21.28680 11.13830 2.401610
618 71.42860 0.000000 28.57140 22.05000 11.55240 7.025570
619 71.42860 0.000000 42.85710 23.64840 12.39380 15.39930
620 71.42860 0.000000 57.14290 26.04540 13.73310 28.20540
621 71.42860 0.000000 71.42860 29.18390 15.46720 45.42360
622 71.42860 0.000000 85.71430 33.54010 17.97480 68.47360
623 71.42860 0.000000 100.0000 39.02920 21.38820 97.76550
624 71.42860 14.28570 0.000000 21.47040 12.17790 0.919429
625 71.42860 14.28570 14.28570 21.81220 12.35160 2.640640
626 71.42860 14.28570 28.57140 22.82040 12.87650 7.323680
627 71.42860 14.28570 42.85710 24.15810 13.60850 15.57680
628 71.42860 14.28570 57.14290 26.69030 14.98140 28.76510
629 71.42860 14.28570 71.42860 29.67620 16.66840 45.44170
630 71.42860 14.28570 85.71430 34.01110 19.21800 68.22160
631 71.42860 14.28570 100.0000 39.66480 22.66640 98.46140
632 71.42860 28.57140 0.000000 22.82140 15.30670 1.405700
633 71.42860 28.57140 14.28570 23.29370 15.52870 3.149480
634 71.42860 28.57140 28.57140 24.24030 16.02890 7.834430
635 71.42860 28.57140 42.85710 25.69610 16.82290 16.13630
636 71.42860 28.57140 57.14290 28.12310 18.09170 29.08140
637 71.42860 28.57140 71.42860 31.29610 19.89730 46.02960
638 71.42860 28.57140 85.71430 35.68400 22.42640 69.35080
639 71.42860 28.57140 100.0000 41.01850 25.79080 98.50760
640 71.42860 42.85710 0.000000 25.66070 21.08670 2.269130
641 71.42860 42.85710 14.28570 25.98600 21.20860 4.033030
642 71.42860 42.85710 28.57140 26.96470 21.75290 8.699750
643 71.42860 42.85710 42.85710 28.53380 22.54700 17.08470
644 71.42860 42.85710 57.14290 30.76700 23.78740 29.84180
645 71.42860 42.85710 71.42860 34.05580 25.59650 47.33110
646 71.42860 42.85710 85.71430 38.15350 28.04260 69.70460
647 71.42860 42.85710 100.0000 43.80770 31.56520 99.53920
648 71.42860 57.14290 0.000000 29.82780 29.93410 3.574130
649 71.42860 57.14290 14.28570 30.12940 30.00320 5.341690
650 71.42860 57.14290 28.57140 31.13790 30.60050 10.03320
651 71.42860 57.14290 42.85710 32.62890 31.37010 18.34730
652 71.42860 57.14290 57.14290 34.94750 32.58310 31.32400
653 71.42860 57.14290 71.42860 38.12040 34.38870 48.27210
654 71.42860 57.14290 85.71430 42.55770 37.02360 71.59480
655 71.42860 57.14290 100.0000 47.87670 40.30540 100.6150
656 71.42860 71.42860 0.000000 35.32030 41.48030 5.235720
657 71.42860 71.42860 14.28570 35.67350 41.65520 7.015030
658 71.42860 71.42860 28.57140 36.64410 42.14710 11.75810
659 71.42860 71.42860 42.85710 38.20820 43.02320 20.18510
660 71.42860 71.42860 57.14290 40.40100 44.15800 32.98210
661 71.42860 71.42860 85.71430 47.90820 48.43900 73.11540
662 71.42860 71.42860 100.0000 53.39730 51.85240 102.4070
663 71.42860 85.71430 0.000000 42.59780 56.75950 7.405790
664 71.42860 85.71430 14.28570 42.84750 56.72280 9.159360
665 71.42860 85.71430 28.57140 43.82180 57.29690 13.98480
666 71.42860 85.71430 42.85710 45.32070 58.06680 22.33580
667 71.42860 85.71430 57.14290 47.87550 59.53970 35.37090
668 71.42860 85.71430 71.42860 50.77050 61.03190 52.18010
669 71.42860 85.71430 85.71430 55.19290 63.65850 74.96070
670 71.42860 85.71430 100.0000 60.84170 67.08460 105.4710
671 71.42860 100.0000 0.000000 52.18760 76.74830 10.19470
672 71.42860 100.0000 14.28570 52.62270 76.94780 12.06300
673 71.42860 100.0000 28.57140 53.56340 77.46880 16.84580
674 71.42860 100.0000 42.85710 55.07400 78.23900 25.25170
675 71.42860 100.0000 57.14290 57.58390 79.68840 38.37070
676 71.42860 100.0000 71.42860 60.45430 81.12780 55.17920
677 71.42860 100.0000 85.71430 64.76950 83.64690 77.68760
678 71.42860 100.0000 100.0000 70.20860 86.88030 107.3830
679 78.57140 7.142860 7.142860 26.35830 14.08030 1.434440
680 78.57140 7.142860 21.42860 26.99630 14.40500 4.536830
681 78.57140 7.142860 35.71430 28.18930 15.02710 10.63020
682 78.57140 7.142860 50.00000 30.20980 16.11820 21.54020
683 78.57140 7.142860 64.28570 33.01790 17.62570 36.34550
684 78.57140 7.142860 78.57140 36.77350 19.81990 56.95540
685 78.57140 7.142860 92.85710 41.27440 22.49450 81.22720
686 78.57140 21.42860 7.142860 27.49750 16.34740 1.782620
687 78.57140 21.42860 21.42860 28.07100 16.65260 4.904750
688 78.57140 21.42860 35.71430 29.25650 17.29370 11.07850
689 78.57140 21.42860 50.00000 31.15120 18.31730 21.87160
690 78.57140 21.42860 64.28570 34.00430 19.85760 36.64950
691 78.57140 21.42860 78.57140 37.62980 21.93890 56.85180
692 78.57140 21.42860 92.85710 42.35860 24.74670 81.66610
693 78.57140 35.71430 7.142860 29.55090 20.69030 2.456030
694 78.57140 35.71430 21.42860 30.23460 21.06160 5.615450
695 78.57140 35.71430 35.71430 31.30300 21.57210 11.76100
696 78.57140 35.71430 50.00000 33.26200 22.63210 22.63480
697 78.57140 35.71430 64.28570 35.94910 24.17680 37.11930
698 78.57140 35.71430 78.57140 39.89930 26.43860 57.72860
699 78.57140 35.71430 92.85710 44.33240 29.06680 82.27130
700 78.57140 50.00000 7.142860 33.04280 28.16200 3.581560
701 78.57140 50.00000 21.42860 33.64200 28.45640 6.754110
702 78.57140 50.00000 35.71430 34.76110 28.99060 12.84320
703 78.57140 50.00000 50.00000 36.89830 30.15240 23.84760
704 78.57140 50.00000 64.28570 39.43070 31.59600 38.31100
705 78.57140 50.00000 78.57140 43.43450 33.91150 59.05630
706 78.57140 50.00000 92.85710 47.87680 36.51000 83.46280
707 78.57140 64.28570 7.142860 37.82760 38.06290 5.011160
708 78.57140 64.28570 21.42860 38.30530 38.30930 8.203020
709 78.57140 64.28570 35.71430 39.33700 38.76660 14.29190
710 78.57140 64.28570 50.00000 41.54910 39.95280 25.35250
711 78.57140 64.28570 64.28570 44.08890 41.36660 39.67150
712 78.57140 64.28570 78.57140 48.05890 43.65900 60.55230
713 78.57140 64.28570 92.85710 52.49200 46.28720 85.09490
714 78.57140 78.57140 7.142860 43.94020 51.17740 6.903050
715 78.57140 78.57140 21.42860 44.63120 51.54880 10.09640
716 78.57140 78.57140 35.71430 45.88150 52.21340 16.27600
717 78.57140 78.57140 50.00000 47.78040 53.19730 27.27670
718 78.57140 78.57140 64.28570 50.36460 54.58250 41.62400
719 78.57140 78.57140 92.85710 58.99630 59.71070 87.18470
720 78.57140 92.85710 7.142860 52.36840 68.78520 9.414520
721 78.57140 92.85710 21.42860 52.97530 69.07980 12.62310
722 78.57140 92.85710 35.71430 54.31290 69.90340 18.86680
723 78.57140 92.85710 50.00000 56.23810 70.85810 29.81180
724 78.57140 92.85710 64.28570 58.82730 72.24340 44.18200
725 78.57140 92.85710 78.57140 62.82680 74.61100 64.79280
726 78.57140 92.85710 92.85710 67.18600 77.08060 89.33310
727 85.71430 0.000000 0.000000 31.46630 16.43680 0.965733
728 85.71430 0.000000 14.28570 31.91430 16.66780 2.654320
729 85.71430 0.000000 28.57140 32.61340 17.05740 7.271190
730 85.71430 0.000000 42.85710 34.20030 17.90270 15.61650
731 85.71430 0.000000 57.14290 36.56700 19.20310 28.47910
732 85.71430 0.000000 71.42860 39.96180 21.05240 45.83260
733 85.71430 0.000000 85.71430 43.85550 23.34370 68.06960
734 85.71430 0.000000 100.0000 49.77110 26.94860 98.71650
735 85.71430 14.28570 0.000000 31.90220 17.63870 1.161330
736 85.71430 14.28570 14.28570 32.36470 17.86480 2.885430
737 85.71430 14.28570 28.57140 33.36990 18.38690 7.538660
738 85.71430 14.28570 42.85710 34.78150 19.15440 15.90980
739 85.71430 14.28570 57.14290 37.14130 20.45920 28.76850
740 85.71430 14.28570 71.42860 40.40320 22.22040 45.85050
741 85.71430 14.28570 85.71430 44.81580 24.80240 69.17250
742 85.71430 14.28570 100.0000 50.09660 28.11310 98.19320
743 85.71430 28.57140 0.000000 33.43170 20.84780 1.650480
744 85.71430 28.57140 14.28570 33.97690 21.08130 3.364970
745 85.71430 28.57140 28.57140 34.77780 21.48250 8.081990
746 85.71430 28.57140 42.85710 36.28640 22.30480 16.36390
747 85.71430 28.57140 57.14290 38.65730 23.62360 29.35620
748 85.71430 28.57140 71.42860 41.80560 25.37630 46.30350
749 85.71430 28.57140 85.71430 46.21820 27.95830 69.62550
750 85.71430 28.57140 100.0000 51.59080 31.29390 98.78140
751 85.71430 42.85710 0.000000 36.28910 26.61360 2.511360
752 85.71430 42.85710 14.28570 36.66090 26.84120 4.263000
753 85.71430 42.85710 28.57140 37.40260 27.20760 8.932550
754 85.71430 42.85710 42.85710 39.04780 28.07830 17.26540
755 85.71430 42.85710 57.14290 41.36400 29.34330 30.11640
756 85.71430 42.85710 71.42860 44.53630 31.07470 47.46980
757 85.71430 42.85710 85.71430 48.69690 33.54480 69.84320
758 85.71430 42.85710 100.0000 54.52550 37.14700 100.0840
759 85.71430 57.14290 0.000000 40.33200 35.41300 3.823350
760 85.71430 57.14290 14.28570 40.68590 35.58790 5.605890
761 85.71430 57.14290 28.57140 41.70450 36.10350 10.27970
762 85.71430 57.14290 42.85710 43.20910 36.87350 18.65730
763 85.71430 57.14290 57.14290 45.45280 38.11410 31.46340
764 85.71430 57.14290 71.42860 48.71750 39.94470 48.54670
765 85.71430 57.14290 85.71430 52.96000 42.39510 71.59670
766 85.71430 57.14290 100.0000 58.38630 45.78450 100.8890
767 85.71430 71.42860 0.000000 45.91010 47.03610 5.476380
768 85.71430 71.42860 14.28570 46.17770 47.13410 7.264230
769 85.71430 71.42860 28.57140 47.23130 47.70280 11.98710
770 85.71430 71.42860 42.85710 48.82710 48.60200 20.26790
771 85.71430 71.42860 57.14290 51.29370 49.89370 33.52840
772 85.71430 71.42860 71.42860 54.12160 51.41390 50.20330
773 85.71430 71.42860 85.71430 58.62660 54.09510 73.25520
774 85.71430 71.42860 100.0000 63.90690 57.33150 102.6810
775 85.71430 85.71430 0.000000 53.10090 62.23840 7.649400
776 85.71430 85.71430 14.28570 53.69910 62.59140 9.463430
777 85.71430 85.71430 28.57140 54.37330 62.88150 14.22590
778 85.71430 85.71430 42.85710 56.04400 63.75300 22.67760
779 85.71430 85.71430 57.14290 58.30680 64.91210 35.50800
780 85.71430 85.71430 71.42860 61.62080 66.84840 52.59280
781 85.71430 85.71430 100.0000 71.19100 72.47670 104.9320
782 85.71430 100.0000 0.000000 62.85170 82.46270 10.43920
783 85.71430 100.0000 14.28570 63.17140 82.53230 12.29110
784 85.71430 100.0000 28.57140 63.85820 82.74070 17.04730
785 85.71430 100.0000 42.85710 65.50380 83.69350 25.44650
786 85.71430 100.0000 57.14290 67.79580 84.82350 38.23430
787 85.71430 100.0000 71.42860 71.07170 86.78870 55.32000
788 85.71430 100.0000 85.71430 75.52250 89.34180 78.64110
789 85.71430 100.0000 100.0000 80.71390 92.41130 107.5230
790 92.85710 7.142860 7.142860 38.24520 20.23220 1.690040
791 92.85710 7.142860 21.42860 38.69300 20.48530 4.788450
792 92.85710 7.142860 35.71430 39.82310 21.08830 10.91160
793 92.85710 7.142860 50.00000 41.77000 22.15280 21.75780
794 92.85710 7.142860 64.28570 44.57650 23.67420 36.21350
795 92.85710 7.142860 78.57140 48.55080 25.91450 57.22880
796 92.85710 7.142860 92.85710 52.92600 28.54100 81.50090
797 92.85710 21.42860 7.142860 39.30340 22.48920 2.040540
798 92.85710 21.42860 21.42860 39.87600 22.79330 5.151520
799 92.85710 21.42860 35.71430 40.86760 23.36350 11.30940
800 92.85710 21.42860 50.00000 42.94460 24.41090 22.21120
801 92.85710 21.42860 64.28570 45.53520 25.87830 36.65280
802 92.85710 21.42860 78.57140 49.57720 28.16500 57.39720
803 92.85710 21.42860 92.85710 53.94320 30.82120 81.80550
804 92.85710 35.71430 7.142860 41.43700 26.91470 2.715220
805 92.85710 35.71430 21.42860 41.75090 27.05970 5.844110
806 92.85710 35.71430 35.71430 43.12240 27.77220 12.00200
807 92.85710 35.71430 50.00000 44.93740 28.73150 22.90510
808 92.85710 35.71430 64.28570 47.68830 30.30020 37.39370
809 92.85710 35.71430 78.57140 51.60890 32.48680 58.27290
810 92.85710 35.71430 92.85710 55.94590 35.14210 82.54590
811 92.85710 50.00000 7.142860 44.80260 34.33820 3.838080
812 92.85710 50.00000 21.42860 45.49140 34.70950 7.021140
813 92.85710 50.00000 35.71430 46.61790 35.24400 13.14470
814 92.85710 50.00000 50.00000 48.62040 36.35750 24.10740
815 92.85710 50.00000 64.28570 51.39840 37.92700 38.72270
816 92.85710 50.00000 78.57140 54.99440 39.93310 59.19490
817 92.85710 50.00000 92.85710 59.57780 42.66230 83.73810
818 92.85710 64.28570 7.142860 49.58960 44.23910 5.277720
819 92.85710 64.28570 21.42860 50.07960 44.40380 8.462540
820 92.85710 64.28570 35.71430 51.11270 44.94330 14.62280
821 92.85710 64.28570 50.00000 53.30720 46.12900 25.60130
822 92.85710 64.28570 64.28570 55.76520 47.46600 39.94600
823 92.85710 64.28570 78.57140 59.71110 49.77980 60.42070
824 92.85710 64.28570 92.85710 64.34270 52.46620 85.77590
825 92.85710 78.57140 7.142860 55.79070 57.43060 7.175190
826 92.85710 78.57140 21.42860 56.33910 57.70130 10.40390
827 92.85710 78.57140 35.71430 57.40920 58.21190 16.55770
828 92.85710 78.57140 50.00000 59.63280 59.45060 27.55810
829 92.85710 78.57140 64.28570 62.12840 60.75880 41.89910
830 92.85710 78.57140 78.57140 66.09840 63.05120 62.77990
831 92.85710 78.57140 92.85710 70.42430 65.57190 87.05040
832 92.85710 92.85710 7.142860 64.35250 75.22100 9.673500
833 92.85710 92.85710 21.42860 64.88210 75.43890 12.92910
834 92.85710 92.85710 35.71430 65.98210 76.00260 19.10790
835 92.85710 92.85710 50.00000 68.11410 77.16430 30.08830
836 92.85710 92.85710 64.28570 70.50360 78.34280 44.45650
837 92.85710 92.85710 78.57140 74.41140 80.68540 64.93210
838 100.0000 0.000000 0.000000 45.05960 23.52240 1.257810
839 100.0000 0.000000 14.28570 45.57880 23.77440 2.965660
840 100.0000 0.000000 28.57140 46.59190 24.28680 7.595860
841 100.0000 0.000000 42.85710 48.04790 25.08400 15.91790
842 100.0000 0.000000 57.14290 50.26080 26.28130 28.75280
843 100.0000 0.000000 71.42860 53.52560 28.11180 45.83600
844 100.0000 0.000000 85.71430 57.59370 30.48280 68.47960
845 100.0000 0.000000 100.0000 63.24800 34.00540 98.31410
846 100.0000 14.28570 0.000000 45.66740 24.80950 1.456640
847 100.0000 14.28570 14.28570 46.00250 24.99290 3.205810
848 100.0000 14.28570 28.57140 46.89650 25.45640 7.861250
849 100.0000 14.28570 42.85710 48.71230 26.41700 16.21930
850 100.0000 14.28570 57.14290 50.83850 27.55770 29.17810
851 100.0000 14.28570 71.42860 54.01140 29.36330 46.12620
852 100.0000 14.28570 85.71430 58.49610 31.93970 69.31180
853 100.0000 14.28570 100.0000 63.74300 35.22720 98.46810
854 100.0000 28.57140 0.000000 47.45070 28.18540 1.952670
855 100.0000 28.57140 14.28570 47.52290 28.21100 3.708420
856 100.0000 28.57140 28.57140 48.63310 28.80360 8.402110
857 100.0000 28.57140 42.85710 49.96950 29.47210 16.69550
858 100.0000 28.57140 57.14290 52.39120 30.81460 29.63160
859 100.0000 28.57140 71.42860 55.53950 32.56740 46.57890
860 100.0000 28.57140 85.71430 59.95700 35.17170 69.63020
861 100.0000 28.57140 100.0000 65.31980 38.46270 99.32760
862 100.0000 42.85710 0.000000 49.84060 33.73270 2.815730
863 100.0000 42.85710 14.28570 50.31660 33.95560 4.581170
864 100.0000 42.85710 28.57140 51.28780 34.49970 9.212830
865 100.0000 42.85710 42.85710 52.79900 35.26990 17.62140
866 100.0000 42.85710 57.14290 55.27720 36.63620 30.52760
867 100.0000 42.85710 71.42860 58.11130 38.26870 47.47570
868 100.0000 42.85710 85.71430 62.36790 40.71180 70.11870
869 100.0000 42.85710 100.0000 68.19660 44.31400 100.3600
870 100.0000 57.14290 0.000000 54.00930 42.58020 4.127880
871 100.0000 57.14290 14.28570 54.72910 42.98110 5.922960
872 100.0000 57.14290 28.57140 55.29760 43.19380 10.59920
873 100.0000 57.14290 42.85710 57.06160 44.19450 18.96480
874 100.0000 57.14290 57.14290 59.51620 45.50800 31.87510
875 100.0000 57.14290 71.42860 62.35030 47.14050 48.82310
876 100.0000 57.14290 85.71430 66.83990 49.73910 71.73800
877 100.0000 57.14290 100.0000 72.31430 53.08560 101.8420
878 100.0000 71.42860 0.000000 59.55380 54.23220 5.803420
879 100.0000 71.42860 14.28570 60.01290 54.40240 7.604730
880 100.0000 71.42860 28.57140 60.82080 54.79300 12.28970
881 100.0000 71.42860 42.85710 62.74410 55.89490 20.69740
882 100.0000 71.42860 57.14290 64.98940 57.11350 33.80470
883 100.0000 71.42860 71.42860 67.93380 58.71150 50.61560
884 100.0000 71.42860 85.71430 72.19040 61.15460 73.25860
885 100.0000 71.42860 100.0000 77.92670 64.65750 103.7700
886 100.0000 85.71430 0.000000 66.81430 69.37670 7.943840
887 100.0000 85.71430 14.28570 67.33280 69.65290 9.793800
888 100.0000 85.71430 28.57140 67.97270 69.88990 14.50980
889 100.0000 85.71430 42.85710 69.75440 70.89110 22.95780
890 100.0000 85.71430 57.14290 71.97780 72.07900 35.78360
891 100.0000 85.71430 71.42860 75.30110 73.98570 52.73210
892 100.0000 85.71430 85.71430 79.19420 76.20270 75.37440
893 100.0000 85.71430 100.0000 85.00800 79.79660 105.0730
894 100.0000 100.0000 0.000000 76.59120 89.65390 10.74100
895 100.0000 100.0000 14.28570 76.90800 89.72340 12.57930
896 100.0000 100.0000 28.57140 77.80740 90.13890 17.39800
897 100.0000 100.0000 42.85710 79.18200 90.77860 25.69080
898 100.0000 100.0000 57.14290 81.69110 92.25010 38.51270
899 100.0000 100.0000 71.42860 84.80060 93.95740 55.86620
900 100.0000 100.0000 85.71430 88.86260 96.21600 78.23660
901 0.000000 12.54900 100.0000 18.45750 11.38580 97.77360
902 12.54900 0.000000 100.0000 18.80640 10.82440 97.75960
903 0.000000 100.0000 12.54900 31.69090 65.92450 11.09140
904 12.54900 100.0000 0.000000 32.16500 66.25680 9.668280
905 100.0000 0.000000 12.54900 45.46270 23.72350 2.565840
906 100.0000 12.54900 0.000000 45.77180 24.65340 1.418250
907 0.000000 25.09800 100.0000 19.55310 13.83660 97.94510
908 25.09800 0.000000 100.0000 20.45990 11.70510 97.35370
909 0.000000 100.0000 25.09800 32.32690 66.25000 14.61520
910 25.09800 100.0000 0.000000 33.85570 67.20440 9.717120
911 100.0000 0.000000 25.09800 46.32290 24.14300 5.954360
912 100.0000 25.09800 0.000000 46.82980 27.13180 1.813440
END_DATA
CAL    

ORIGINATOR "Argyll dispread"
CREATED "Sat Sep 28 15:14:53 2013"
KEYWORD "DEVICE_CLASS"
DEVICE_CLASS "DISPLAY"
DESCRIPTOR "Argyll Device Calibration State"

BEGIN_ARGYLL_DISPCAL_ARGS
-v2 -qm -w0.312699,0.329001 -b140.0 -gs -f1.0 -k0 -A4.0 -d2 -c1 -yn -P0.489417989418,0.487373737374,1.43661971831 -X "CCFLFamily_07Feb11.ccss"
END_ARGYLL_DISPCAL_ARGS

KEYWORD "COLOR_REP"
COLOR_REP "RGB"

KEYWORD "RGB_I"
NUMBER_OF_FIELDS 4
BEGIN_DATA_FORMAT
RGB_I RGB_R RGB_G RGB_B
END_DATA_FORMAT

NUMBER_OF_SETS 256
BEGIN_DATA
0.00000000 0.01446090 0.01526050 0.01328180
0.00392157 0.01989970 0.02110430 0.01852180
0.00784314 0.02531140 0.02689070 0.02373250
0.01176470 0.03069620 0.03262040 0.02891410
0.01568630 0.03605410 0.03829430 0.03406690
0.01960780 0.04138550 0.04391320 0.03919110
0.02352940 0.04669050 0.04947780 0.04428690
0.02745100 0.05196430 0.05498610 0.04935260
0.03137250 0.05720840 0.06046010 0.05438200
0.03529410 0.06243590 0.06590080 0.05937200
0.03921570 0.06763090 0.07129010 0.06431110
0.04313730 0.07280430 0.07663540 0.06920660
0.04705880 0.07797060 0.08194710 0.07409920
0.05098040 0.08313870 0.08723880 0.07901070
0.05490200 0.08832720 0.09251430 0.08394410
0.05882350 0.09352500 0.09774590 0.08889160
0.06274510 0.09868230 0.10291300 0.09383120
0.06666670 0.10378100 0.10801800 0.09875120
0.07058820 0.10882200 0.11304500 0.10365500
0.07450980 0.11380500 0.11799300 0.10853700
0.07843140 0.11871200 0.12285100 0.11338600
0.08235290 0.12352700 0.12762100 0.11818000
0.08627450 0.12824200 0.13230000 0.12289200
0.09019610 0.13285700 0.13689300 0.12750600
0.09411760 0.13739000 0.14141300 0.13199200
0.09803920 0.14183900 0.14584800 0.13634800
0.10196100 0.14619000 0.15018900 0.14057800
0.10588200 0.15043500 0.15443500 0.14467400
0.10980400 0.15457400 0.15859000 0.14863700
0.11372500 0.15861100 0.16264600 0.15247600
0.11764700 0.16254200 0.16659800 0.15620000
0.12156900 0.16637300 0.17044800 0.15982200
0.12549000 0.17011300 0.17420000 0.16334900
0.12941200 0.17376900 0.17784900 0.16678400
0.13333300 0.17733500 0.18139900 0.17014100
0.13725500 0.18082100 0.18486700 0.17343100
0.14117600 0.18424200 0.18826000 0.17665700
0.14509800 0.18760400 0.19158600 0.17982500
0.14902000 0.19091200 0.19485200 0.18295600
0.15294100 0.19417000 0.19806700 0.18605700
0.15686300 0.19739000 0.20123600 0.18913100
0.16078400 0.20057500 0.20436100 0.19218400
0.16470600 0.20372600 0.20744400 0.19522500
0.16862700 0.20685000 0.21048900 0.19825800
0.17254900 0.20994900 0.21350900 0.20128300
0.17647100 0.21303700 0.21653600 0.20429900
0.18039200 0.21613400 0.21957200 0.20730500
0.18431400 0.21924000 0.22261900 0.21030300
0.18823500 0.22235600 0.22567900 0.21331000
0.19215700 0.22547900 0.22875200 0.21633000
0.19607800 0.22860900 0.23183400 0.21936500
0.20000000 0.23174200 0.23492200 0.22241400
0.20392200 0.23487600 0.23801100 0.22547100
0.20784300 0.23801100 0.24110200 0.22852700
0.21176500 0.24114400 0.24419200 0.23157600
0.21568600 0.24426100 0.24727400 0.23461900
0.21960800 0.24735400 0.25034800 0.23764800
0.22352900 0.25042200 0.25340600 0.24066300
0.22745100 0.25345600 0.25644400 0.24366200
0.23137300 0.25645400 0.25946800 0.24663900
0.23529400 0.25942400 0.26248800 0.24958900
0.23921600 0.26237700 0.26550300 0.25251100
0.24313700 0.26531400 0.26851500 0.25540200
0.24705900 0.26823400 0.27152300 0.25827300
0.25098000 0.27113700 0.27453100 0.26113600
0.25490200 0.27402700 0.27754000 0.26399800
0.25882400 0.27690600 0.28054700 0.26685900
0.26274500 0.27977500 0.28355000 0.26972100
0.26666700 0.28263600 0.28654600 0.27258300
0.27058800 0.28548900 0.28953100 0.27545300
0.27451000 0.28833400 0.29251500 0.27833600
0.27843100 0.29117600 0.29550100 0.28123500
0.28235300 0.29402000 0.29849500 0.28414700
0.28627500 0.29687000 0.30149900 0.28706700
0.29019600 0.29973300 0.30451200 0.29000100
0.29411800 0.30260800 0.30753800 0.29295800
0.29803900 0.30549500 0.31057600 0.29593800
0.30196100 0.30839700 0.31362400 0.29894400
0.30588200 0.31131000 0.31667600 0.30197600
0.30980400 0.31422600 0.31973200 0.30503600
0.31372500 0.31714400 0.32279100 0.30812700
0.31764700 0.32006600 0.32585200 0.31124500
0.32156900 0.32299000 0.32891400 0.31438100
0.32549000 0.32591700 0.33197800 0.31753000
0.32941200 0.32884400 0.33504100 0.32069900
0.33333300 0.33176300 0.33812400 0.32388700
0.33725500 0.33468200 0.34122800 0.32709100
0.34117600 0.33761100 0.34435000 0.33030400
0.34509800 0.34055100 0.34748000 0.33352900
0.34902000 0.34350200 0.35061900 0.33678200
0.35294100 0.34646300 0.35376700 0.34006600
0.35686300 0.34943600 0.35692400 0.34338100
0.36078400 0.35242100 0.36009900 0.34670900
0.36470600 0.35541800 0.36328800 0.35004100
0.36862700 0.35843700 0.36648800 0.35337700
0.37254900 0.36148200 0.36969700 0.35671700
0.37647100 0.36455300 0.37292200 0.36006700
0.38039200 0.36764800 0.37617300 0.36342700
0.38431400 0.37077200 0.37945200 0.36679200
0.38823500 0.37393700 0.38275700 0.37015300
0.39215700 0.37715000 0.38608700 0.37350800
0.39607800 0.38041000 0.38943500 0.37686600
0.40000000 0.38371900 0.39280000 0.38023200
0.40392200 0.38706700 0.39617800 0.38360800
0.40784300 0.39045300 0.39956500 0.38699200
0.41176500 0.39387300 0.40296500 0.39037500
0.41568600 0.39731300 0.40637500 0.39375500
0.41960800 0.40077300 0.40979800 0.39712500
0.42352900 0.40425000 0.41322600 0.40049300
0.42745100 0.40774400 0.41665200 0.40386200
0.43137300 0.41124200 0.42007700 0.40723300
0.43529400 0.41473500 0.42350400 0.41061300
0.43921600 0.41822000 0.42693900 0.41400700
0.44313700 0.42169500 0.43038100 0.41741000
0.44705900 0.42516200 0.43383300 0.42082400
0.45098000 0.42861800 0.43729600 0.42425600
0.45490200 0.43206000 0.44076000 0.42770700
0.45882400 0.43549300 0.44422500 0.43117700
0.46274500 0.43891500 0.44769600 0.43465500
0.46666700 0.44232100 0.45117800 0.43814400
0.47058800 0.44571400 0.45467200 0.44165000
0.47451000 0.44909800 0.45817100 0.44517600
0.47843100 0.45248000 0.46166900 0.44872200
0.48235300 0.45585900 0.46515500 0.45229100
0.48627500 0.45923200 0.46862500 0.45588100
0.49019600 0.46260100 0.47208000 0.45948100
0.49411800 0.46596200 0.47552700 0.46309100
0.49803900 0.46931300 0.47897000 0.46670100
0.50196100 0.47265900 0.48240800 0.47030700
0.50588200 0.47600500 0.48583700 0.47391900
0.50980400 0.47935200 0.48925400 0.47754300
0.51372500 0.48270000 0.49265300 0.48117800
0.51764700 0.48605100 0.49604000 0.48482700
0.52156900 0.48939500 0.49942800 0.48848900
0.52549000 0.49273200 0.50281700 0.49216100
0.52941200 0.49607100 0.50620800 0.49585000
0.53333300 0.49942200 0.50961000 0.49956400
0.53725500 0.50278300 0.51303400 0.50330600
0.54117600 0.50615700 0.51646700 0.50707800
0.54509800 0.50955900 0.51990900 0.51088700
0.54902000 0.51298000 0.52336000 0.51471300
0.55294100 0.51641600 0.52681700 0.51855600
0.55686300 0.51986700 0.53028700 0.52241600
0.56078400 0.52333300 0.53377400 0.52629100
0.56470600 0.52681500 0.53728100 0.53018100
0.56862700 0.53032200 0.54080900 0.53409000
0.57254900 0.53385500 0.54435400 0.53801200
0.57647100 0.53741400 0.54790900 0.54195300
0.58039200 0.54099900 0.55147400 0.54591900
0.58431400 0.54460300 0.55505700 0.54990400
0.58823500 0.54820900 0.55865900 0.55390600
0.59215700 0.55181700 0.56227900 0.55793700
0.59607800 0.55544100 0.56591400 0.56200100
0.60000000 0.55908600 0.56955400 0.56607900
0.60392200 0.56274900 0.57319100 0.57015400
0.60784300 0.56642200 0.57682300 0.57422000
0.61176500 0.57009700 0.58045500 0.57826600
0.61568600 0.57376800 0.58409000 0.58229500
0.61960800 0.57743700 0.58773000 0.58630900
0.62352900 0.58111500 0.59137300 0.59031800
0.62745100 0.58481100 0.59501500 0.59432200
0.63137300 0.58852900 0.59865000 0.59831200
0.63529400 0.59226100 0.60227800 0.60228100
0.63921600 0.59600000 0.60591900 0.60623300
0.64313700 0.59974100 0.60961100 0.61019800
0.64705900 0.60348800 0.61336400 0.61418300
0.65098000 0.60727400 0.61718500 0.61820100
0.65490200 0.61111100 0.62108900 0.62227600
0.65882400 0.61500300 0.62508300 0.62642700
0.66274500 0.61895900 0.62917000 0.63066200
0.66666700 0.62298800 0.63334800 0.63497300
0.67058800 0.62709500 0.63761900 0.63935500
0.67451000 0.63127300 0.64198700 0.64378900
0.67843100 0.63551100 0.64643500 0.64826000
0.68235300 0.63980600 0.65094700 0.65275000
0.68627500 0.64414600 0.65552600 0.65726200
0.69019600 0.64851800 0.66016100 0.66179000
0.69411800 0.65292000 0.66484400 0.66632200
0.69803900 0.65735700 0.66957500 0.67085900
0.70196100 0.66183200 0.67432000 0.67539500
0.70588200 0.66634400 0.67902100 0.67991000
0.70980400 0.67089500 0.68367800 0.68437600
0.71372500 0.67545800 0.68830600 0.68879400
0.71764700 0.68001700 0.69291000 0.69317600
0.72156900 0.68457400 0.69749100 0.69753000
0.72549000 0.68913500 0.70204100 0.70185200
0.72941200 0.69370400 0.70656400 0.70614200
0.73333300 0.69826600 0.71104900 0.71038200
0.73725500 0.70280900 0.71549600 0.71456400
0.74117600 0.70731800 0.71989900 0.71868200
0.74509800 0.71178500 0.72424500 0.72274500
0.74902000 0.71620600 0.72852600 0.72676100
0.75294100 0.72057700 0.73274700 0.73074400
0.75686300 0.72488600 0.73692500 0.73470600
0.76078400 0.72913000 0.74107000 0.73865500
0.76470600 0.73333100 0.74518200 0.74259000
0.76862700 0.73750900 0.74925400 0.74649800
0.77254900 0.74166900 0.75329100 0.75037200
0.77647100 0.74580400 0.75731800 0.75421400
0.78039200 0.74991300 0.76134100 0.75806100
0.78431400 0.75401700 0.76537100 0.76192700
0.78823500 0.75813000 0.76942200 0.76581600
0.79215700 0.76225600 0.77350100 0.76973200
0.79607800 0.76641200 0.77761200 0.77368100
0.80000000 0.77060200 0.78175300 0.77767400
0.80392200 0.77482900 0.78592100 0.78171400
0.80784300 0.77908800 0.79011900 0.78577600
0.81176500 0.78336800 0.79434600 0.78985200
0.81568600 0.78767300 0.79859700 0.79393700
0.81960800 0.79200600 0.80287000 0.79803300
0.82352900 0.79636500 0.80714700 0.80213700
0.82745100 0.80074700 0.81142400 0.80625700
0.83137300 0.80512600 0.81569900 0.81039400
0.83529400 0.80949400 0.81996700 0.81454800
0.83921600 0.81385900 0.82421200 0.81871800
0.84313700 0.81822200 0.82842900 0.82289800
0.84705900 0.82257600 0.83261300 0.82707600
0.85098000 0.82691500 0.83677900 0.83124300
0.85490200 0.83123100 0.84094400 0.83539500
0.85882400 0.83554100 0.84512000 0.83955700
0.86274500 0.83986500 0.84930900 0.84375400
0.86666700 0.84421300 0.85349600 0.84798200
0.87058800 0.84856800 0.85767900 0.85222800
0.87451000 0.85291500 0.86186700 0.85648400
0.87843100 0.85725700 0.86605800 0.86075200
0.88235300 0.86161400 0.87025600 0.86503600
0.88627500 0.86598000 0.87447400 0.86933400
0.89019600 0.87036200 0.87870700 0.87364800
0.89411800 0.87476900 0.88294300 0.87798600
0.89803900 0.87918300 0.88718000 0.88233800
0.90196100 0.88359000 0.89141700 0.88670000
0.90588200 0.88800100 0.89564700 0.89107600
0.90980400 0.89241600 0.89987500 0.89545900
0.91372500 0.89683800 0.90409500 0.89985300
0.91764700 0.90126200 0.90830100 0.90426700
0.92156900 0.90567400 0.91250400 0.90868400
0.92549000 0.91008400 0.91670400 0.91310400
0.92941200 0.91450100 0.92090000 0.91754100
0.93333300 0.91891500 0.92510600 0.92198900
0.93725500 0.92333600 0.92932900 0.92645000
0.94117600 0.92777400 0.93356100 0.93094200
0.94509800 0.93222100 0.93779100 0.93545100
0.94902000 0.93667300 0.94201500 0.93997300
0.95294100 0.94112800 0.94623300 0.94450600
0.95686300 0.94558900 0.95045100 0.94905100
0.96078400 0.95005700 0.95466400 0.95361500
0.96470600 0.95453300 0.95888000 0.95819100
0.96862700 0.95901700 0.96309300 0.96278300
0.97254900 0.96350600 0.96730500 0.96738900
0.97647100 0.96800200 0.97152000 0.97200900
0.98039200 0.97250400 0.97573800 0.97664200
0.98431400 0.97701300 0.97996000 0.98129000
0.98823500 0.98152700 0.98418400 0.98595000
0.99215700 0.98604700 0.98841100 0.99062500
0.99607800 0.99057300 0.99264100 0.99531300
1.00000000 0.99510500 0.99687400 1.00000000
END_DATA