CTI3   

ORIGINATOR "Argyll dispread"
KEYWORD "USE_BLACK_POINT_COMPENSATION"
USE_BLACK_POINT_COMPENSATION "NO"
CREATED "Fri Sep 27 20:32:02 2013"
KEYWORD "TARGET_INSTRUMENT"
TARGET_INSTRUMENT "Xrite i1 DisplayPro, ColorMunki Display"
KEYWORD "DISPLAY_TYPE_REFRESH"
DISPLAY_TYPE_REFRESH "NO"
KEYWORD "COMP_GREY_STEPS"
COMP_GREY_STEPS "57"
KEYWORD "LUMINANCE_XYZ_CDM2"
LUMINANCE_XYZ_CDM2 "132.142115 139.212981 151.245889"
KEYWORD "VIDEO_LUT_CALIBRATION_POSSIBLE"
VIDEO_LUT_CALIBRATION_POSSIBLE "YES"
KEYWORD "SINGLE_DIM_STEPS"
SINGLE_DIM_STEPS "0"
DESCRIPTOR "Argyll Calibration Target chart information 3"

BEGIN_ARGYLL_COLPROF_ARGS
-v -qh -al -C "No copyright. Created with dispcalGUI 0.0.0.0 and Argyll CMS 1.6.0" -M "DELL 2407WFP" -A "Dell"
END_ARGYLL_COLPROF_ARGS

KEYWORD "DEVICE_CLASS"
DEVICE_CLASS "DISPLAY"
KEYWORD "NORMALIZED_TO_Y_100"
NORMALIZED_TO_Y_100 "YES"
KEYWORD "DISPLAY_TYPE_BASE_ID"
DISPLAY_TYPE_BASE_ID "1"
KEYWORD "INSTRUMENT_TYPE_SPECTRAL"
INSTRUMENT_TYPE_SPECTRAL "NO"
KEYWORD "COLOR_REP"
COLOR_REP "RGB_XYZ"

NUMBER_OF_FIELDS 7
BEGIN_DATA_FORMAT
SAMPLE_ID RGB_R RGB_G RGB_B XYZ_X XYZ_Y XYZ_Z
END_DATA_FORMAT

NUMBER_OF_SETS 912
BEGIN_DATA
1 100.0000 100.0000 100.0000 94.92080 100.0000 108.6440
2 100.0000 100.0000 100.0000 94.97020 100.1060 108.6450
3 100.0000 100.0000 100.0000 95.42690 100.4470 109.3250
4 100.0000 100.0000 100.0000 94.94550 100.0530 108.6440
5 0.000000 0.000000 0.000000 0.174997 0.160917 0.174098
6 1.785700 1.785700 1.785700 0.257644 0.253376 0.270588
7 3.571400 3.571400 3.571400 0.364228 0.363815 0.393716
8 5.357100 5.357100 5.357100 0.532049 0.550560 0.582455
9 7.142900 7.142900 7.142900 0.706389 0.734698 0.785404
10 8.928600 8.928600 8.928600 0.919301 0.959638 1.041840
11 10.71400 10.71400 10.71400 1.117740 1.158870 1.292440
12 12.50000 12.50000 12.50000 1.490450 1.525880 1.622540
13 14.28600 14.28600 14.28600 1.810750 1.857360 2.007980
14 16.07100 16.07100 16.07100 2.235190 2.344230 2.481590
15 17.85700 17.85700 17.85700 2.734170 2.924410 3.088530
16 19.64300 19.64300 19.64300 3.210360 3.354980 3.581850
17 21.42900 21.42900 21.42900 3.808790 3.963480 4.310120
18 23.21400 23.21400 23.21400 4.445990 4.631720 4.954690
19 25.00000 25.00000 25.00000 4.994950 5.276690 5.563780
20 26.78600 26.78600 26.78600 5.559080 5.830010 6.288040
21 28.57100 28.57100 28.57100 6.564240 6.782030 7.402000
22 30.35700 30.35700 30.35700 7.151660 7.594460 8.054020
23 32.14300 32.14300 32.14300 7.942800 8.326110 8.993580
24 33.92900 33.92900 33.92900 9.022840 9.582230 10.01000
25 35.71400 35.71400 35.71400 9.953720 10.43960 11.21850
26 37.50000 37.50000 37.50000 10.90670 11.50690 12.50220
27 39.28600 39.28600 39.28600 11.99960 12.62660 13.44960
28 41.07100 41.07100 41.07100 13.09840 13.81350 14.82490
29 42.85700 42.85700 42.85700 14.22720 14.83700 16.21060
30 44.64300 44.64300 44.64300 15.71790 16.49710 17.91300
31 46.42900 46.42900 46.42900 17.00740 17.78620 19.47710
32 48.21400 48.21400 48.21400 18.68960 19.60080 21.25830
33 50.00000 50.00000 50.00000 20.31160 21.44350 22.93770
34 51.78600 51.78600 51.78600 21.85470 22.99320 24.64090
35 53.57100 53.57100 53.57100 23.92950 25.15460 27.27550
36 55.35700 55.35700 55.35700 25.37750 26.70920 29.00790
37 57.14300 57.14300 57.14300 27.40620 28.89930 31.60620
38 58.92900 58.92900 58.92900 28.92260 30.53020 33.24970
39 60.71400 60.71400 60.71400 31.19400 32.92050 35.57820
40 62.50000 62.50000 62.50000 32.91670 34.48990 37.35410
41 64.28600 64.28600 64.28600 35.09200 36.90730 39.41290
42 66.07100 66.07100 66.07100 37.22110 39.01820 42.41550
43 67.85700 67.85700 67.85700 39.41620 41.46620 44.74590
44 69.64300 69.64300 69.64300 41.93550 44.02040 47.88870
45 71.42900 71.42900 71.42900 43.92590 46.23930 50.48790
46 73.21400 73.21400 73.21400 46.72180 49.01690 53.22550
47 75.00000 75.00000 75.00000 48.88970 51.17340 55.82180
48 76.78600 76.78600 76.78600 51.34000 54.04620 58.42890
49 78.57100 78.57100 78.57100 54.08600 56.64370 61.57040
50 80.35700 80.35700 80.35700 56.37990 59.24460 65.25870
51 82.14300 82.14300 82.14300 59.28560 62.36840 68.00180
52 83.92900 83.92900 83.92900 62.53660 65.71910 72.37300
53 85.71400 85.71400 85.71400 66.19250 69.57990 76.07200
54 87.50000 87.50000 87.50000 69.33300 73.02370 79.22580
55 89.28600 89.28600 89.28600 72.87120 76.65810 83.59960
56 91.07100 91.07100 91.07100 76.02110 80.07220 86.61710
57 92.85700 92.85700 92.85700 79.78420 84.04050 90.58830
58 94.64300 94.64300 94.64300 82.69880 87.45670 94.69280
59 96.42900 96.42900 96.42900 87.18980 91.89280 99.61510
60 98.21400 98.21400 98.21400 91.21130 96.08540 104.8080
61 0.000000 0.000000 14.28570 0.469264 0.312525 1.781440
62 0.000000 0.000000 28.57140 1.342120 0.768590 6.550920
63 0.000000 0.000000 42.85710 2.797740 1.543500 14.50590
64 0.000000 0.000000 57.14290 5.303370 2.920870 28.20750
65 0.000000 0.000000 71.42860 8.449650 4.690310 45.43090
66 0.000000 0.000000 85.71430 12.67660 7.193330 68.62390
67 0.000000 0.000000 100.0000 18.12480 10.53380 98.19390
68 0.000000 14.28570 0.000000 0.690686 1.261060 0.344191
69 0.000000 14.28570 14.28570 0.987779 1.407260 1.989790
70 0.000000 14.28570 28.57140 1.872840 1.876140 6.816380
71 0.000000 14.28570 42.85710 3.329100 2.652780 14.78660
72 0.000000 14.28570 57.14290 5.831880 4.035180 28.49470
73 0.000000 14.28570 71.42860 8.918500 5.786080 45.44720
74 0.000000 14.28570 85.71430 13.21110 8.322910 68.91140
75 0.000000 14.28570 100.0000 18.64540 11.63530 98.34530
76 0.000000 28.57140 0.000000 2.183940 4.434380 0.827897
77 0.000000 28.57140 14.28570 2.478310 4.570290 2.485000
78 0.000000 28.57140 28.57140 3.368600 5.050030 7.291190
79 0.000000 28.57140 42.85710 4.822300 5.827430 15.29630
80 0.000000 28.57140 57.14290 7.300230 7.202380 28.94740
81 0.000000 28.57140 71.42860 10.48080 8.936540 46.30550
82 0.000000 28.57140 85.71430 14.75190 11.46230 69.36290
83 0.000000 28.57140 100.0000 20.11720 14.81850 98.79830
84 0.000000 42.85710 0.000000 4.709390 9.791370 1.635170
85 0.000000 42.85710 14.28570 5.014250 9.929230 3.315690
86 0.000000 42.85710 28.57140 5.939310 10.36120 8.132460
87 0.000000 42.85710 42.85710 7.351120 11.16730 16.14050
88 0.000000 42.85710 57.14290 9.857650 12.48530 29.83660
89 0.000000 42.85710 71.42860 12.95940 14.29700 46.92570
90 0.000000 42.85710 85.71430 17.28080 16.78050 70.52410
91 0.000000 42.85710 100.0000 22.61670 20.14580 99.68890
92 0.000000 57.14290 0.000000 9.200230 19.26010 3.032980
93 0.000000 57.14290 14.28570 9.483840 19.32860 4.716220
94 0.000000 57.14290 28.57140 10.31880 19.80230 9.592600
95 0.000000 57.14290 42.85710 11.80460 20.51200 17.52420
96 0.000000 57.14290 57.14290 14.32610 21.94770 31.46460
97 0.000000 57.14290 71.42860 17.35870 23.62320 48.28050
98 0.000000 57.14290 85.71430 21.70050 26.21150 71.74520
99 0.000000 57.14290 100.0000 27.11840 29.55720 101.5870
100 0.000000 71.42860 0.000000 14.61970 30.65070 4.690010
101 0.000000 71.42860 14.28570 14.95630 30.82510 6.391720
102 0.000000 71.42860 28.57140 15.82580 31.26980 11.25040
103 0.000000 71.42860 42.85710 17.31120 32.14380 19.31010
104 0.000000 71.42860 57.14290 19.81920 33.49700 33.12230
105 0.000000 71.42860 71.42860 22.80250 35.06660 49.93670
106 0.000000 71.42860 85.71430 27.11530 37.65410 73.26610
107 0.000000 71.42860 100.0000 32.69840 41.10900 103.6500
108 0.000000 85.71430 0.000000 21.95750 45.95800 6.839520
109 0.000000 85.71430 14.28570 22.27660 46.07980 8.574100
110 0.000000 85.71430 28.57140 23.18340 46.57770 13.49230
111 0.000000 85.71430 42.85710 24.64580 47.39880 21.55890
112 0.000000 85.71430 57.14290 27.04730 48.64460 35.10270
113 0.000000 85.71430 71.42860 30.24090 50.48130 52.32700
114 0.000000 85.71430 85.71430 34.42110 52.83400 75.78880
115 0.000000 85.71430 100.0000 39.70340 56.14560 104.8170
116 0.000000 100.0000 0.000000 31.65020 66.16380 9.639980
117 0.000000 100.0000 14.28570 31.86600 66.15600 11.41450
118 0.000000 100.0000 28.57140 32.78660 66.57230 16.33270
119 0.000000 100.0000 42.85710 34.23890 67.34090 24.46640
120 0.000000 100.0000 57.14290 36.69360 68.61040 37.96480
121 0.000000 100.0000 71.42860 39.84460 70.52790 55.05550
122 0.000000 100.0000 85.71430 44.13650 72.93620 78.92400
123 0.000000 100.0000 100.0000 49.38780 76.08260 107.6790
124 7.142860 7.142860 21.42860 1.281680 1.033800 3.912750
125 7.142860 7.142860 35.71430 2.413290 1.630260 10.06400
126 7.142860 7.142860 50.00000 4.326580 2.660890 20.49070
127 7.142860 7.142860 64.28570 7.100220 4.191570 35.67180
128 7.142860 7.142860 78.57140 10.61000 6.255090 54.93120
129 7.142860 7.142860 92.85710 15.47530 9.135370 81.37950
130 7.142860 21.42860 7.142860 1.704550 2.859280 1.114980
131 7.142860 21.42860 21.42860 2.281930 3.157610 4.260720
132 7.142860 21.42860 35.71430 3.420110 3.767970 10.42540
133 7.142860 21.42860 50.00000 5.350450 4.796580 20.93630
134 7.142860 21.42860 64.28570 8.101730 6.320490 35.97380
135 7.142860 21.42860 78.57140 11.66740 8.402540 55.50420
136 7.142860 21.42860 92.85710 16.49140 11.28540 81.68160
137 7.142860 35.71430 7.142860 3.749890 7.183210 1.781700
138 7.142860 35.71430 21.42860 4.328980 7.482040 4.978380
139 7.142860 35.71430 35.71430 5.451540 8.070010 11.09460
140 7.142860 35.71430 50.00000 7.354350 9.087040 21.50610
141 7.142860 35.71430 64.28570 10.13610 10.59350 36.71320
142 7.142860 35.71430 78.57140 13.69440 12.66700 56.10790
143 7.142860 35.71430 92.85710 18.48190 15.51560 82.42070
144 7.142860 50.00000 7.142860 7.254270 14.56690 2.888320
145 7.142860 50.00000 21.42860 7.819510 14.89030 6.081510
146 7.142860 50.00000 35.71430 8.910200 15.45380 12.21730
147 7.142860 50.00000 50.00000 10.84350 16.45330 22.61290
148 7.142860 50.00000 64.28570 13.60220 18.00840 37.90520
149 7.142860 50.00000 78.57140 17.14040 19.99760 57.16290
150 7.142860 50.00000 92.85710 22.10500 22.99320 84.15470
151 7.142860 64.28570 7.142860 12.04790 24.68710 4.368210
152 7.142860 64.28570 21.42860 12.65660 24.98180 7.585530
153 7.142860 64.28570 35.71430 13.77960 25.59850 13.75750
154 7.142860 64.28570 50.00000 15.67350 26.57470 24.26310
155 7.142860 64.28570 64.28570 18.40530 28.15100 39.13610
156 7.142860 64.28570 78.57140 22.10390 30.22720 59.20750
157 7.142860 64.28570 92.85710 26.77190 33.02750 84.97810
158 7.142860 78.57140 7.142860 18.21580 37.61250 6.202910
159 7.142860 78.57140 21.42860 18.80130 37.85440 9.425990
160 7.142860 78.57140 35.71430 19.89490 38.50010 15.64020
161 7.142860 78.57140 50.00000 21.79940 39.39450 26.13000
162 7.142860 78.57140 64.28570 24.54830 40.97140 41.08290
163 7.142860 78.57140 78.57140 28.03230 42.83250 60.60990
164 7.142860 78.57140 92.85710 32.89020 45.79500 86.92410
165 7.142860 92.85710 7.142860 26.85180 55.64850 8.759230
166 7.142860 92.85710 21.42860 27.46140 56.02530 12.04530
167 7.142860 92.85710 35.71430 28.58500 56.50770 18.26980
168 7.142860 92.85710 50.00000 30.48940 57.58850 28.59520
169 7.142860 92.85710 64.28570 33.31780 59.16780 43.91990
170 7.142860 92.85710 78.57140 36.71920 60.97430 63.17540
171 7.142860 92.85710 92.85710 41.57720 63.93670 89.48970
172 14.28570 0.000000 0.000000 0.970837 0.574690 0.198580
173 14.28570 0.000000 14.28570 1.284810 0.736498 1.789270
174 14.28570 0.000000 28.57140 2.168300 1.197140 6.546900
175 14.28570 0.000000 42.85710 3.629970 1.974560 14.48690
176 14.28570 0.000000 57.14290 6.118830 3.358190 28.07230
177 14.28570 0.000000 71.42860 9.319580 5.125380 45.43080
178 14.28570 0.000000 85.71430 13.53360 7.640020 68.48860
179 14.28570 0.000000 100.0000 19.13950 11.04490 98.87180
180 14.28570 14.28570 0.000000 1.492900 1.698890 0.372806
181 14.28570 14.28570 28.57140 2.704410 2.327960 6.806590
182 14.28570 14.28570 42.85710 4.163630 3.101450 14.72710
183 14.28570 14.28570 57.14290 6.676110 4.488770 28.49520
184 14.28570 14.28570 71.42860 9.814010 6.246700 45.58290
185 14.28570 14.28570 85.71430 14.17460 8.800810 69.18240
186 14.28570 14.28570 100.0000 19.55140 12.15590 98.34650
187 14.28570 28.57140 0.000000 3.002760 4.912070 0.861900
188 14.28570 28.57140 14.28570 3.317230 5.058580 2.507230
189 14.28570 28.57140 28.57140 4.224100 5.543040 7.310590
190 14.28570 28.57140 42.85710 5.678860 6.325260 15.28290
191 14.28570 28.57140 57.14290 8.213660 7.696980 29.08360
192 14.28570 28.57140 71.42860 11.28190 9.440590 45.90050
193 14.28570 28.57140 85.71430 15.68670 11.97350 69.63480
194 14.28570 28.57140 100.0000 21.03150 15.34220 98.79950
195 14.28570 42.85710 0.000000 5.557370 10.30540 1.676580
196 14.28570 42.85710 14.28570 5.898070 10.45710 3.339570
197 14.28570 42.85710 28.57140 6.770980 10.89420 8.168040
198 14.28570 42.85710 42.85710 8.188820 11.66180 16.14090
199 14.28570 42.85710 57.14290 10.75490 13.06900 30.11020
200 14.28570 42.85710 71.42860 13.82140 14.76760 46.79070
201 14.28570 42.85710 85.71430 18.10950 17.30210 70.11930
202 14.28570 42.85710 100.0000 23.69270 20.75710 100.5040
203 14.28570 57.14290 0.000000 10.03670 19.70770 3.072440
204 14.28570 57.14290 14.28570 10.30550 19.85790 4.751240
205 14.28570 57.14290 28.57140 11.23660 20.32660 9.603610
206 14.28570 57.14290 42.85710 12.68380 21.06510 17.53450
207 14.28570 57.14290 57.14290 15.24180 22.47200 31.46570
208 14.28570 57.14290 71.42860 18.29910 24.20030 48.28240
209 14.28570 57.14290 85.71430 22.66980 26.78960 71.88250
210 14.28570 57.14290 100.0000 28.06790 30.10460 101.4520
211 14.28570 71.42860 0.000000 15.46710 31.23290 4.730840
212 14.28570 71.42860 14.28570 15.81430 31.32550 6.417370
213 14.28570 71.42860 28.57140 16.74030 31.87620 11.31090
214 14.28570 71.42860 42.85710 18.14090 32.59120 19.31770
215 14.28570 71.42860 57.14290 20.65230 33.96670 32.85200
216 14.28570 71.42860 71.42860 23.87480 35.80420 50.21160
217 14.28570 71.42860 85.71430 28.05990 38.17930 73.40260
218 14.28570 71.42860 100.0000 33.51230 41.62240 102.7030
219 14.28570 85.71430 0.000000 22.85560 46.64610 6.888060
220 14.28570 85.71430 14.28570 23.15730 46.76730 8.541230
221 14.28570 85.71430 28.57140 24.00170 47.10690 13.51160
222 14.28570 85.71430 42.85710 25.50030 47.89910 21.56800
223 14.28570 85.71430 57.14290 27.94950 49.25060 35.10550
224 14.28570 85.71430 71.42860 31.16090 50.95350 52.46270
225 14.28570 85.71430 85.71430 35.36640 53.43350 75.51990
226 14.28570 85.71430 100.0000 40.88720 56.93870 105.4990
227 14.28570 100.0000 0.000000 32.43590 66.50560 9.671050
228 14.28570 100.0000 14.28570 32.76140 66.62750 11.43560
229 14.28570 100.0000 28.57140 33.64240 67.07260 16.34750
230 14.28570 100.0000 42.85710 35.14740 67.86500 24.43370
231 14.28570 100.0000 57.14290 37.53290 69.19230 37.96780
232 14.28570 100.0000 71.42860 40.76030 71.05220 55.05660
233 14.28570 100.0000 85.71430 44.97880 73.37610 78.51750
234 14.28570 100.0000 100.0000 50.39290 76.84810 107.8190
235 21.42860 7.142860 7.142860 2.219900 1.523490 0.828453
236 21.42860 7.142860 21.42860 2.803870 1.825860 3.951060
237 21.42860 7.142860 35.71430 3.947840 2.432400 10.07540
238 21.42860 7.142860 50.00000 5.873050 3.469800 20.55380
239 21.42860 7.142860 64.28570 8.650100 5.002200 35.67230
240 21.42860 7.142860 78.57140 12.25740 7.090640 55.33800
241 21.42860 7.142860 92.85710 17.12170 9.982800 81.37970
242 21.42860 21.42860 7.142860 3.220090 3.658720 1.161590
243 21.42860 21.42860 35.71430 4.952660 4.579600 10.42900
244 21.42860 21.42860 50.00000 6.872720 5.617970 20.89260
245 21.42860 21.42860 64.28570 9.646160 7.133990 35.97430
246 21.42860 21.42860 78.57140 13.23580 9.213820 55.50450
247 21.42860 21.42860 92.85710 18.19870 12.12540 82.08790
248 21.42860 35.71430 7.142860 5.263060 7.974610 1.823930
249 21.42860 35.71430 21.42860 5.858430 8.271760 4.990530
250 21.42860 35.71430 35.71430 6.990060 8.872770 11.15260
251 21.42860 35.71430 50.00000 8.920030 9.903000 21.61810
252 21.42860 35.71430 64.28570 11.69230 11.42680 36.44280
253 21.42860 35.71430 78.57140 15.30010 13.47850 56.37900
254 21.42860 35.71430 92.85710 20.13830 16.41030 82.42170
255 21.42860 50.00000 7.142860 8.731250 15.38970 2.932640
256 21.42860 50.00000 21.42860 9.331810 15.68420 6.111570
257 21.42860 50.00000 35.71430 10.49740 16.27210 12.30340
258 21.42860 50.00000 50.00000 12.37590 17.24780 22.73700
259 21.42860 50.00000 64.28570 15.20490 18.84930 37.77020
260 21.42860 50.00000 78.57140 18.82080 20.87080 57.57010
261 21.42860 50.00000 92.85710 23.65900 23.80270 83.61280
262 21.42860 64.28570 7.142860 13.58960 25.53400 4.421180
263 21.42860 64.28570 21.42860 14.22420 25.88170 7.644640
264 21.42860 64.28570 35.71430 15.29100 26.39230 13.78360
265 21.42860 64.28570 50.00000 17.23350 27.47430 24.28680
266 21.42860 64.28570 64.28570 20.02780 29.02250 39.27260
267 21.42860 64.28570 78.57140 23.58090 31.02000 59.07270
268 21.42860 64.28570 92.85710 28.45720 33.92300 85.11450
269 21.42860 78.57140 7.142860 19.67060 38.38250 6.257830
270 21.42860 78.57140 21.42860 20.22660 38.57140 9.457720
271 21.42860 78.57140 35.71430 21.46990 39.31810 15.66920
272 21.42860 78.57140 50.00000 23.43450 40.31850 26.21120
273 21.42860 78.57140 64.28570 26.03880 41.68250 40.94640
274 21.42860 78.57140 78.57140 29.81570 43.86530 61.15470
275 21.42860 78.57140 92.85710 34.52190 46.63680 86.92440
276 21.42860 92.85710 7.142860 28.44610 56.60120 8.828910
277 21.42860 92.85710 21.42860 29.01230 56.79040 12.07630
278 21.42860 92.85710 35.71430 30.17050 57.46020 18.29840
279 21.42860 92.85710 50.00000 32.12730 58.54260 28.86880
280 21.42860 92.85710 64.28570 34.69190 59.80110 43.64750
281 21.42860 92.85710 78.57140 38.33740 61.89780 63.17740
282 21.42860 92.85710 92.85710 43.30690 64.91570 89.89840
283 28.57140 0.000000 0.000000 3.265870 1.768220 0.265846
284 28.57140 0.000000 14.28570 3.610600 1.944040 1.855330
285 28.57140 0.000000 28.57140 4.512490 2.415860 6.594060
286 28.57140 0.000000 42.85710 5.977830 3.198510 14.55780
287 28.57140 0.000000 57.14290 8.499670 4.583690 28.20830
288 28.57140 0.000000 71.42860 11.62090 6.349930 45.16070
289 28.57140 0.000000 85.71430 16.08210 8.904500 69.16600
290 28.57140 0.000000 100.0000 21.50520 12.29540 98.33040
291 28.57140 14.28570 0.000000 3.782810 2.896060 0.440959
292 28.57140 14.28570 14.28570 4.133850 3.068880 2.070830
293 28.57140 14.28570 28.57140 5.045720 3.548010 6.863070
294 28.57140 14.28570 42.85710 6.525220 4.340060 14.82900
295 28.57140 14.28570 57.14290 9.098620 5.733000 28.76670
296 28.57140 14.28570 71.42860 12.13410 7.479630 45.44840
297 28.57140 14.28570 85.71430 16.53740 10.04730 68.91210
298 28.57140 14.28570 100.0000 22.04850 13.41580 98.34640
299 28.57140 28.57140 0.000000 5.290860 6.114100 0.932829
300 28.57140 28.57140 14.28570 5.643010 6.280810 2.573360
301 28.57140 28.57140 42.85710 8.050150 7.558120 15.41710
302 28.57140 28.57140 57.14290 10.57770 8.968780 29.08500
303 28.57140 28.57140 71.42860 13.70970 10.69150 46.03650
304 28.57140 28.57140 85.71430 18.02970 13.21790 69.63580
305 28.57140 28.57140 100.0000 23.48210 16.66110 98.93650
306 28.57140 42.85710 0.000000 7.838090 11.51370 1.746760
307 28.57140 42.85710 14.28570 8.195330 11.66720 3.416000
308 28.57140 42.85710 28.57140 9.053090 12.11150 8.219670
309 28.57140 42.85710 42.85710 10.60410 12.92740 16.22690
310 28.57140 42.85710 57.14290 13.09830 14.28030 29.97500
311 28.57140 42.85710 71.42860 16.26720 16.06410 47.19850
312 28.57140 42.85710 85.71430 20.53550 18.56810 70.25560
313 28.57140 42.85710 100.0000 26.18640 22.06940 100.3690
314 28.57140 57.14290 0.000000 12.25970 20.90110 3.141630
315 28.57140 57.14290 14.28570 12.65590 21.09940 4.828060
316 28.57140 57.14290 28.57140 13.51430 21.54380 9.634920
317 28.57140 57.14290 42.85710 15.03420 22.38880 17.67600
318 28.57140 57.14290 57.14290 17.54700 23.71220 31.33150
319 28.57140 57.14290 71.42860 20.74480 25.49690 48.69030
320 28.57140 57.14290 85.71430 24.92130 27.97590 71.61210
321 28.57140 57.14290 100.0000 30.60610 31.50040 101.5900
322 28.57140 71.42860 0.000000 17.75250 32.45030 4.797890
323 28.57140 71.42860 14.28570 18.21310 32.67280 6.491580
324 28.57140 71.42860 28.57140 19.02000 33.09340 11.35140
325 28.57140 71.42860 42.85710 20.59700 33.96230 19.36570
326 28.57140 71.42860 57.14290 23.09370 35.31520 33.12530
327 28.57140 71.42860 71.42860 26.07700 36.88480 49.93970
328 28.57140 71.42860 85.71430 30.54450 39.52130 73.40410
329 28.57140 71.42860 100.0000 36.09860 42.97530 103.6530
330 28.57140 85.71430 0.000000 25.10750 47.67600 6.962640
331 28.57140 85.71430 14.28570 25.52220 48.00920 8.685970
332 28.57140 85.71430 28.57140 26.37160 48.40120 13.56500
333 28.57140 85.71430 42.85710 27.89310 49.24620 21.61400
334 28.57140 85.71430 57.14290 30.45380 50.62320 35.37870
335 28.57140 85.71430 71.42860 33.41240 52.13990 52.19240
336 28.57140 85.71430 85.71430 37.72520 54.72740 75.52170
337 28.57140 85.71430 100.0000 43.29780 58.12200 105.4980
338 28.57140 100.0000 0.000000 34.74500 67.77580 9.734130
339 28.57140 100.0000 14.28570 35.12290 68.00360 11.51460
340 28.57140 100.0000 28.57140 35.94900 68.34270 16.39910
341 28.57140 100.0000 42.85710 37.47090 69.18780 24.45000
342 28.57140 100.0000 57.14290 39.89610 70.43420 38.10420
343 28.57140 100.0000 71.42860 43.08340 72.15860 55.05520
344 28.57140 100.0000 85.71430 47.45840 74.69580 78.78980
345 28.57140 100.0000 100.0000 52.77880 77.97860 107.8180
346 35.71430 7.142860 7.142860 5.174780 3.065560 0.917219
347 35.71430 7.142860 21.42860 5.782810 3.380390 4.043300
348 35.71430 7.142860 35.71430 6.913750 3.978450 10.14540
349 35.71430 7.142860 50.00000 8.859860 5.020530 20.60330
350 35.71430 7.142860 64.28570 11.58020 6.557340 35.40240
351 35.71430 7.142860 78.57140 15.24550 8.646570 55.20320
352 35.71430 7.142860 92.85710 20.15530 11.56820 81.51620
353 35.71430 21.42860 7.142860 6.188980 5.220660 1.251270
354 35.71430 21.42860 21.42860 6.766900 5.515350 4.390440
355 35.71430 21.42860 35.71430 7.898020 6.118890 10.51210
356 35.71430 21.42860 50.00000 9.842320 7.165930 20.94230
357 35.71430 21.42860 64.28570 12.67020 8.727150 36.11110
358 35.71430 21.42860 78.57140 16.26520 10.78070 55.50500
359 35.71430 21.42860 92.85710 21.16670 13.70620 81.95380
360 35.71430 35.71430 7.142860 8.172600 9.507520 1.909420
361 35.71430 35.71430 21.42860 8.758190 9.813290 5.088570
362 35.71430 35.71430 50.00000 11.82190 11.41240 21.58820
363 35.71430 35.71430 64.28570 14.72950 12.99320 36.85010
364 35.71430 35.71430 78.57140 18.22030 15.04090 56.24500
365 35.71430 35.71430 92.85710 23.19900 18.02910 82.82980
366 35.71430 50.00000 7.142860 11.73850 16.92480 3.026070
367 35.71430 50.00000 21.42860 12.21050 17.17100 6.191750
368 35.71430 50.00000 35.71430 13.39210 17.72940 12.27930
369 35.71430 50.00000 50.00000 15.34230 18.81160 22.81880
370 35.71430 50.00000 64.28570 18.15400 20.41260 37.77140
371 35.71430 50.00000 78.57140 21.71200 22.43240 57.30070
372 35.71430 50.00000 92.85710 26.67100 25.39000 83.61390
373 35.71430 64.28570 7.142860 16.53330 27.04500 4.511840
374 35.71430 64.28570 21.42860 17.18800 27.44540 7.714720
375 35.71430 64.28570 35.71430 18.28030 28.00900 13.85800
376 35.71430 64.28570 50.00000 20.14030 28.93200 24.31920
377 35.71430 64.28570 64.28570 23.01510 30.55700 39.27300
378 35.71430 64.28570 78.57140 26.62190 32.60820 59.20920
379 35.71430 64.28570 92.85710 31.40640 35.48630 85.11580
380 35.71430 78.57140 7.142860 22.61650 39.89360 6.358730
381 35.71430 78.57140 21.42860 23.26480 40.15950 9.581090
382 35.71430 78.57140 35.71430 24.44790 40.80010 15.74060
383 35.71430 78.57140 50.00000 26.42240 41.93520 26.27890
384 35.71430 78.57140 64.28570 29.11990 43.40620 41.22070
385 35.71430 78.57140 78.57140 32.71120 45.37490 61.01990
386 35.71430 78.57140 92.85710 37.53390 48.22410 86.92550
387 35.71430 92.85710 7.142860 31.41190 58.16500 8.908150
388 35.71430 92.85710 21.42860 31.95020 58.38330 12.20440
389 35.71430 92.85710 35.71430 33.01260 58.89380 18.32250
390 35.71430 92.85710 50.00000 35.08990 60.02420 28.86840
391 35.71430 92.85710 64.28570 37.79140 61.46540 43.64920
392 35.71430 92.85710 78.57140 41.53500 63.69930 63.58760
393 35.71430 92.85710 92.85710 46.22520 66.31380 89.62570
394 42.85710 0.000000 0.000000 6.993980 3.708130 0.370761
395 42.85710 0.000000 14.28570 7.356700 3.894580 1.968830
396 42.85710 0.000000 28.57140 8.260540 4.365530 6.690840
397 42.85710 0.000000 42.85710 9.711150 5.141710 14.61070
398 42.85710 0.000000 57.14290 12.24200 6.541260 28.20940
399 42.85710 0.000000 71.42860 15.38020 8.327190 45.29770
400 42.85710 0.000000 85.71430 19.85890 10.86230 69.30240
401 42.85710 0.000000 100.0000 25.23570 14.24470 98.33150
402 42.85710 14.28570 0.000000 7.514890 4.849790 0.548107
403 42.85710 14.28570 14.28570 7.883970 5.035460 2.190360
404 42.85710 14.28570 28.57140 8.764690 5.496900 6.966370
405 42.85710 14.28570 42.85710 10.24130 6.282940 14.92610
406 42.85710 14.28570 57.14290 12.84580 7.693060 28.76780
407 42.85710 14.28570 71.42860 15.94170 9.474270 45.58520
408 42.85710 14.28570 85.71430 20.26310 11.94110 69.04780
409 42.85710 14.28570 100.0000 25.79810 15.43890 98.61990
410 42.85710 28.57140 0.000000 9.019050 8.085300 1.043240
411 42.85710 28.57140 14.28570 9.360300 8.247420 2.692600
412 42.85710 28.57140 28.57140 10.32940 8.746350 7.470190
413 42.85710 28.57140 42.85710 11.75600 9.508730 15.45120
414 42.85710 28.57140 57.14290 14.26440 10.90330 29.08620
415 42.85710 28.57140 71.42860 17.42710 12.66900 46.17390
416 42.85710 28.57140 85.71430 21.89400 15.23110 70.04360
417 42.85710 28.57140 100.0000 27.26370 18.61970 99.07290
418 42.85710 42.85710 0.000000 11.60210 13.48020 1.850860
419 42.85710 42.85710 14.28570 11.96860 13.62550 3.513420
420 42.85710 42.85710 28.57140 12.79240 14.01670 8.272590
421 42.85710 42.85710 57.14290 16.87990 16.23890 30.11140
422 42.85710 42.85710 71.42860 19.89900 17.99600 46.92910
423 42.85710 42.85710 85.71430 24.31720 20.52670 70.39190
424 42.85710 42.85710 100.0000 29.91440 23.97420 100.3690
425 42.85710 57.14290 0.000000 16.03490 22.85950 3.247950
426 42.85710 57.14290 14.28570 16.45360 23.11070 4.925130
427 42.85710 57.14290 28.57140 17.30550 23.55490 9.701580
428 42.85710 57.14290 42.85710 18.72600 24.24040 17.62190
429 42.85710 57.14290 57.14290 21.32860 25.67080 31.46780
430 42.85710 57.14290 71.42860 24.41490 27.40000 48.41990
431 42.85710 57.14290 85.71430 28.76580 29.95860 71.74840
432 42.85710 57.14290 100.0000 34.46540 33.49140 102.2690
433 42.85710 71.42860 0.000000 21.52940 34.40880 4.912010
434 42.85710 71.42860 14.28570 21.86330 34.58310 6.601420
435 42.85710 71.42860 28.57140 22.79900 35.05200 11.47520
436 42.85710 71.42860 42.85710 24.27870 35.84360 19.44350
437 42.85710 71.42860 57.14290 26.87530 37.27380 33.26160
438 42.85710 71.42860 71.42860 29.93690 38.95010 50.21290
439 42.85710 71.42860 85.71430 34.23430 41.45500 73.40530
440 42.85710 71.42860 100.0000 39.99240 45.06380 103.7910
441 42.85710 85.71430 0.000000 28.77990 49.63920 7.061750
442 42.85710 85.71430 14.28570 29.18930 49.83790 8.809940
443 42.85710 85.71430 28.57140 30.09120 50.25360 13.64060
444 42.85710 85.71430 42.85710 31.66680 51.20460 21.71330
445 42.85710 85.71430 57.14290 34.06530 52.45020 35.24300
446 42.85710 85.71430 71.42860 37.23850 54.18200 52.60110
447 42.85710 85.71430 85.71430 41.48220 56.63310 75.65730
448 42.85710 85.71430 100.0000 47.05100 60.15410 105.0940
449 42.85710 100.0000 0.000000 38.53290 69.86890 9.850090
450 42.85710 100.0000 14.28570 38.86520 69.90890 11.58190
451 42.85710 100.0000 28.57140 39.79010 70.45960 16.46990
452 42.85710 100.0000 42.85710 41.22130 71.17550 24.61990
453 42.85710 100.0000 57.14290 43.64870 72.39200 38.10530
454 42.85710 100.0000 71.42860 47.01730 74.38260 55.33080
455 42.85710 100.0000 85.71430 51.07480 76.54520 78.38340
456 42.85710 100.0000 100.0000 56.65910 80.14880 107.9570
457 50.00000 7.142860 7.142860 10.07220 5.616450 1.048840
458 50.00000 7.142860 21.42860 10.65930 5.923920 4.175700
459 50.00000 7.142860 35.71430 11.81580 6.531360 10.27260
460 50.00000 7.142860 50.00000 13.73550 7.564190 20.81230
461 50.00000 7.142860 64.28570 16.41420 9.084790 35.53950
462 50.00000 7.142860 78.57140 20.10050 11.19620 55.34050
463 50.00000 7.142860 92.85710 25.05550 14.08530 81.65240
464 50.00000 21.42860 7.142860 11.04130 7.764550 1.387300
465 50.00000 21.42860 21.42860 11.62600 8.063380 4.521190
466 50.00000 21.42860 35.71430 12.82710 8.688170 10.66700
467 50.00000 21.42860 50.00000 14.66580 9.693660 21.09940
468 50.00000 21.42860 64.28570 17.44830 11.23270 35.97700
469 50.00000 21.42860 78.57140 21.23910 13.38230 56.04890
470 50.00000 21.42860 92.85710 26.02360 16.26040 81.95550
471 50.00000 35.71430 7.142860 13.11980 12.08760 2.045260
472 50.00000 35.71430 21.42860 13.76150 12.41850 5.200270
473 50.00000 35.71430 35.71430 14.78990 12.95520 11.32270
474 50.00000 35.71430 50.00000 16.74010 13.94540 21.73790
475 50.00000 35.71430 64.28570 19.58210 15.59940 36.71730
476 50.00000 35.71430 78.57140 23.22700 17.62180 56.65260
477 50.00000 35.71430 92.85710 28.06510 20.55360 82.69530
478 50.00000 50.00000 7.142860 16.64790 19.53270 3.158830
479 50.00000 50.00000 21.42860 17.22150 19.77420 6.326130
480 50.00000 50.00000 35.71430 18.33860 20.39060 12.47090
481 50.00000 50.00000 64.28570 22.98630 22.91390 37.77240
482 50.00000 50.00000 78.57140 26.76310 25.09670 57.98070
483 50.00000 50.00000 92.85710 31.55680 27.94510 83.75100
484 50.00000 64.28570 7.142860 21.44250 29.65290 4.643360
485 50.00000 64.28570 21.42860 21.98500 29.92350 7.844660
486 50.00000 64.28570 35.71430 23.19150 30.53480 13.93410
487 50.00000 64.28570 50.00000 25.11530 31.56410 24.46470
488 50.00000 64.28570 64.28570 27.92560 33.16500 39.41080
489 50.00000 64.28570 78.57140 31.54160 35.18650 59.21080
490 50.00000 64.28570 92.85710 36.35510 38.06550 85.25270
491 50.00000 78.57140 7.142860 27.61320 42.57840 6.490740
492 50.00000 78.57140 21.42860 28.14450 42.71440 9.689470
493 50.00000 78.57140 35.71430 29.25960 43.33080 15.82480
494 50.00000 78.57140 50.00000 31.18590 44.36010 26.36710
495 50.00000 78.57140 64.28570 33.92750 45.85460 41.22090
496 50.00000 78.57140 78.57140 37.68030 48.05890 61.02300
497 50.00000 78.57140 92.85710 42.55600 50.88760 87.47010
498 50.00000 92.85710 7.142860 36.27300 60.66720 9.044120
499 50.00000 92.85710 21.42860 36.94030 61.06800 12.30570
500 50.00000 92.85710 35.71430 38.02100 61.57900 18.50910
501 50.00000 92.85710 50.00000 39.99620 62.68420 28.87170
502 50.00000 92.85710 64.28570 42.58980 63.94350 43.78570
503 50.00000 92.85710 78.57140 46.28890 66.09400 63.45170
504 50.00000 92.85710 92.85710 51.37490 69.18980 90.30860
505 57.14290 0.000000 0.000000 12.96110 6.820490 0.528441
506 57.14290 0.000000 14.28570 13.34120 7.015570 2.123310
507 57.14290 0.000000 28.57140 14.24390 7.485940 6.858010
508 57.14290 0.000000 42.85710 15.71870 8.270530 14.76180
509 57.14290 0.000000 57.14290 18.21600 9.664990 28.34680
510 57.14290 0.000000 71.42860 21.41640 11.47380 45.43490
511 57.14290 0.000000 85.71430 25.77840 13.97540 68.89770
512 57.14290 0.000000 100.0000 31.55000 17.50250 99.28170
513 57.14290 14.28570 0.000000 13.46920 7.965680 0.706914
514 57.14290 14.28570 14.28570 13.92220 8.184590 2.345030
515 57.14290 14.28570 28.57140 14.76920 8.630500 7.109510
516 57.14290 14.28570 42.85710 16.31890 9.444530 15.09980
517 57.14290 14.28570 57.14290 18.86730 10.83750 28.90510
518 57.14290 14.28570 71.42860 22.06640 12.59850 46.12790
519 57.14290 14.28570 85.71430 26.31610 15.11660 69.18540
520 57.14290 14.28570 100.0000 31.82640 18.56150 98.75670
521 57.14290 28.57140 0.000000 15.08850 11.25190 1.201550
522 57.14290 28.57140 14.28570 15.42510 11.41840 2.856020
523 57.14290 28.57140 28.57140 16.32810 11.89370 7.621200
524 57.14290 28.57140 42.85710 17.75880 12.66150 15.65340
525 57.14290 28.57140 57.14290 20.27940 14.03600 29.22340
526 57.14290 28.57140 71.42860 23.62980 15.87130 46.71730
527 57.14290 28.57140 85.71430 27.80640 18.35030 69.63920
528 57.14290 28.57140 100.0000 33.44240 21.84340 99.21020
529 57.14290 42.85710 0.000000 17.57310 16.57900 2.013950
530 57.14290 42.85710 14.28570 17.96400 16.77720 3.675830
531 57.14290 42.85710 28.57140 18.87340 17.24530 8.427120
532 57.14290 42.85710 42.85710 20.30940 18.01340 16.48490
533 57.14290 42.85710 57.14290 22.78740 19.33580 29.97780
534 57.14290 42.85710 71.42860 26.01480 21.19570 47.06650
535 57.14290 42.85710 85.71430 30.53530 23.81160 71.07240
536 57.14290 42.85710 100.0000 35.88960 27.11750 99.96460
537 57.14290 57.14290 0.000000 22.05500 26.06410 3.411270
538 57.14290 57.14290 14.28570 22.48330 26.23340 5.068580
539 57.14290 57.14290 28.57140 23.24690 26.60060 9.840360
540 57.14290 57.14290 42.85710 24.77310 27.36370 17.84660
541 57.14290 57.14290 71.42860 30.41420 30.52180 48.42140
542 57.14290 57.14290 85.71430 34.89650 33.16650 72.42820
543 57.14290 57.14290 100.0000 40.21690 36.44930 101.4560
544 57.14290 71.42860 0.000000 27.46200 37.53640 5.074970
545 57.14290 71.42860 14.28570 27.98550 37.78300 6.768730
546 57.14290 71.42860 28.57140 28.90680 38.33350 11.64010
547 57.14290 71.42860 42.85710 30.24030 38.94210 19.56240
548 57.14290 71.42860 57.14290 32.87470 40.39560 33.26320
549 57.14290 71.42860 71.42860 35.93630 42.07190 50.21450
550 57.14290 71.42860 85.71430 40.31190 44.68350 73.54370
551 57.14290 71.42860 100.0000 46.07430 48.24030 104.0640
552 57.14290 85.71430 0.000000 34.83990 52.81500 7.232230
553 57.14290 85.71430 14.28570 35.22190 52.96070 8.966830
554 57.14290 85.71430 28.57140 36.11190 53.45820 13.80700
555 57.14290 85.71430 42.85710 37.69820 54.32740 21.86450
556 57.14290 85.71430 57.14290 40.11820 55.62580 35.38060
557 57.14290 85.71430 71.42860 43.39440 57.51710 52.87630
558 57.14290 85.71430 85.71430 47.53510 59.80870 75.79490
559 57.14290 85.71430 100.0000 53.33140 63.38870 106.1800
560 57.14290 100.0000 0.000000 44.43000 72.80910 10.01150
561 57.14290 100.0000 14.28570 44.86380 73.06070 11.75890
562 57.14290 100.0000 28.57140 45.88810 73.68870 16.70380
563 57.14290 100.0000 42.85710 47.19200 74.24430 24.60190
564 57.14290 100.0000 57.14290 49.81380 75.69740 38.24430
565 57.14290 100.0000 71.42860 52.87050 77.35140 55.46640
566 57.14290 100.0000 85.71430 57.18140 79.77450 78.65710
567 57.14290 100.0000 100.0000 62.76570 83.37810 108.2310
568 64.28570 7.142860 7.142860 17.41510 9.438240 1.232210
569 64.28570 7.142860 21.42860 17.99160 9.741310 4.354270
570 64.28570 7.142860 35.71430 19.05840 10.31220 10.42660
571 64.28570 7.142860 50.00000 21.09330 11.39010 20.89480
572 64.28570 7.142860 64.28570 23.92750 12.94220 36.08280
573 64.28570 7.142860 78.57140 27.49220 14.97970 55.74790
574 64.28570 7.142860 92.85710 32.60470 18.01000 82.33220
575 64.28570 21.42860 7.142860 18.33940 11.58110 1.572120
576 64.28570 21.42860 21.42860 18.92340 11.88200 4.715390
577 64.28570 21.42860 35.71430 20.17570 12.53070 10.80800
578 64.28570 21.42860 50.00000 22.02350 13.53940 21.30020
579 64.28570 21.42860 64.28570 24.78370 15.08480 36.11520
580 64.28570 21.42860 78.57140 28.59400 17.19680 56.05050
581 64.28570 21.42860 92.85710 33.36930 20.10460 82.09340
582 64.28570 35.71430 7.142860 20.46950 15.93670 2.230330
583 64.28570 35.71430 21.42860 21.05470 16.23870 5.385530
584 64.28570 35.71430 35.71430 22.14830 16.78990 11.46020
585 64.28570 35.71430 50.00000 24.08510 17.78950 21.87250
586 64.28570 35.71430 64.28570 26.84030 19.36660 36.85450
587 64.28570 35.71430 78.57140 30.62630 21.51970 56.92650
588 64.28570 35.71430 92.85710 35.41090 24.39780 82.83310
589 64.28570 50.00000 7.142860 24.00440 23.37720 3.346720
590 64.28570 50.00000 21.42860 24.51570 23.59470 6.516920
591 64.28570 50.00000 35.71430 25.62170 24.21080 12.60990
592 64.28570 50.00000 50.00000 27.58810 25.26350 23.04550
593 64.28570 50.00000 64.28570 30.41460 26.81280 38.18170
594 64.28570 50.00000 78.57140 33.94360 28.83170 57.57570
595 64.28570 50.00000 92.85710 38.95620 31.84310 84.02500
596 64.28570 64.28570 7.142860 28.67510 33.44940 4.840120
597 64.28570 64.28570 21.42860 29.31950 33.71520 8.044470
598 64.28570 64.28570 35.71430 30.39980 34.27840 14.13190
599 64.28570 64.28570 50.00000 32.27710 35.30620 24.44520
600 64.28570 64.28570 78.57140 38.74190 38.95200 59.07740
601 64.28570 64.28570 92.85710 43.72980 41.91050 85.52590
602 64.28570 78.57140 7.142860 34.94280 46.37000 6.667720
603 64.28570 78.57140 21.42860 35.49200 46.64080 9.900180
604 64.28570 78.57140 35.71430 36.65940 47.22870 16.10050
605 64.28570 78.57140 50.00000 38.50930 48.15150 26.51510
606 64.28570 78.57140 64.28570 41.35150 49.80550 41.49560
607 64.28570 78.57140 78.57140 44.86020 51.71950 61.02340
608 64.28570 78.57140 92.85710 49.81910 54.67720 87.33660
609 64.28570 92.85710 7.142860 43.67810 64.61750 9.230040
610 64.28570 92.85710 21.42860 44.21050 64.83560 12.49890
611 64.28570 92.85710 35.71430 45.48950 65.55340 18.69800
612 64.28570 92.85710 50.00000 47.31720 66.47550 29.00880
613 64.28570 92.85710 64.28570 49.96450 67.78860 44.05890
614 64.28570 92.85710 78.57140 53.61000 69.88530 63.58880
615 64.28570 92.85710 92.85710 58.69160 73.03310 90.31120
616 71.42860 0.000000 0.000000 20.94510 10.97860 0.720899
617 71.42860 0.000000 14.28570 21.32210 11.17340 2.300220
618 71.42860 0.000000 28.57140 22.40840 11.72030 7.038750
619 71.42860 0.000000 42.85710 23.77330 12.45480 15.00200
620 71.42860 0.000000 57.14290 26.27170 13.85400 28.62000
621 71.42860 0.000000 71.42860 29.40590 15.61850 45.57230
622 71.42860 0.000000 85.71430 33.97640 18.24550 69.44230
623 71.42860 0.000000 100.0000 39.39920 21.61340 99.01300
624 71.42860 14.28570 0.000000 21.51240 12.15070 0.900118
625 71.42860 14.28570 14.28570 21.90140 12.34460 2.527540
626 71.42860 14.28570 28.57140 22.80220 12.82650 7.322930
627 71.42860 14.28570 42.85710 24.28050 13.61190 15.24690
628 71.42860 14.28570 57.14290 26.98480 15.05140 29.17820
629 71.42860 14.28570 71.42860 30.13410 16.82720 46.26610
630 71.42860 14.28570 85.71430 34.33960 19.30720 69.32330
631 71.42860 14.28570 100.0000 40.05820 22.85480 99.16580
632 71.42860 28.57140 0.000000 23.00360 15.39100 1.397330
633 71.42860 28.57140 14.28570 23.46350 15.60450 3.033840
634 71.42860 28.57140 28.57140 24.41060 16.12420 7.836750
635 71.42860 28.57140 42.85710 25.78900 16.84970 15.80730
636 71.42860 28.57140 57.14290 28.48450 18.27800 29.63170
637 71.42860 28.57140 71.42860 31.47900 19.98220 46.44860
638 71.42860 28.57140 85.71430 36.03820 22.64360 70.04820
639 71.42860 28.57140 100.0000 41.40310 26.00990 99.34830
640 71.42860 42.85710 0.000000 25.75980 20.87090 2.211910
641 71.42860 42.85710 14.28570 26.08810 21.04510 3.875350
642 71.42860 42.85710 28.57140 27.00810 21.51350 8.676010
643 71.42860 42.85710 42.85710 28.40640 22.22840 16.67180
644 71.42860 42.85710 57.14290 30.88930 23.63300 30.25250
645 71.42860 42.85710 71.42860 34.15000 25.44170 47.61120
646 71.42860 42.85710 85.71430 38.41830 27.94570 70.66820
647 71.42860 42.85710 100.0000 44.16590 31.49430 100.6460
648 71.42860 57.14290 0.000000 30.09080 30.25500 3.606300
649 71.42860 57.14290 14.28570 30.61120 30.50140 5.285480
650 71.42860 57.14290 28.57140 31.40680 30.92170 10.09260
651 71.42860 57.14290 42.85710 32.97780 31.79040 18.07930
652 71.42860 57.14290 57.14290 35.54620 33.16760 31.88010
653 71.42860 57.14290 71.42860 38.45320 34.79490 48.69640
654 71.42860 57.14290 85.71430 43.06610 37.51010 72.43200
655 71.42860 57.14290 100.0000 48.46420 40.82520 102.0020
656 71.42860 71.42860 0.000000 35.49790 41.72730 5.270310
657 71.42860 71.42860 14.28570 36.01610 41.97370 6.939660
658 71.42860 71.42860 28.57140 36.99680 42.54820 11.79460
659 71.42860 71.42860 42.85710 38.39510 43.26310 19.79100
660 71.42860 71.42860 57.14290 40.83970 44.51010 33.53580
661 71.42860 71.42860 85.71430 48.33980 48.82200 73.81620
662 71.42860 71.42860 100.0000 54.18540 52.50770 104.2020
663 71.42860 85.71430 0.000000 42.74780 56.95770 7.417330
664 71.42860 85.71430 14.28570 43.35370 57.36310 9.152650
665 71.42860 85.71430 28.57140 44.09100 57.62530 14.03060
666 71.42860 85.71430 42.85710 45.63860 58.44110 22.02240
667 71.42860 85.71430 57.14290 48.19540 59.87010 35.65460
668 71.42860 85.71430 71.42860 51.26130 61.49440 52.74050
669 71.42860 85.71430 85.71430 55.64620 64.07620 75.93350
670 71.42860 85.71430 100.0000 61.46720 67.70910 106.3190
671 71.42860 100.0000 0.000000 52.46490 76.99990 10.20220
672 71.42860 100.0000 14.28570 52.99460 77.32880 11.98970
673 71.42860 100.0000 28.57140 53.75650 77.64380 16.86850
674 71.42860 100.0000 42.85710 55.25570 78.43600 24.92740
675 71.42860 100.0000 57.14290 57.71600 79.78780 38.51700
676 71.42860 100.0000 71.42860 61.13820 81.83220 55.87860
677 71.42860 100.0000 85.71430 65.19570 83.99480 78.93120
678 71.42860 100.0000 100.0000 70.68630 87.40910 108.2310
679 78.57140 7.142860 7.142860 26.41870 14.11580 1.437400
680 78.57140 7.142860 21.42860 26.93320 14.39130 4.542230
681 78.57140 7.142860 35.71430 28.05950 14.99960 10.68010
682 78.57140 7.142860 50.00000 29.95550 16.02970 21.09060
683 78.57140 7.142860 64.28570 32.91490 17.62070 36.22070
684 78.57140 7.142860 78.57140 36.41970 19.65790 55.61520
685 78.57140 7.142860 92.85710 41.57720 22.67370 82.74110
686 78.57140 21.42860 7.142860 27.27590 16.23770 1.777160
687 78.57140 21.42860 21.42860 27.91600 16.56580 4.908350
688 78.57140 21.42860 35.71430 29.10660 17.20050 11.06630
689 78.57140 21.42860 50.00000 31.08980 18.24860 21.55010
690 78.57140 21.42860 64.28570 33.75150 19.70650 36.25220
691 78.57140 21.42860 78.57140 37.57150 21.88280 56.18870
692 78.57140 21.42860 92.85710 42.37080 24.76910 82.63770
693 78.57140 35.71430 7.142860 29.40620 20.59490 2.445380
694 78.57140 35.71430 21.42860 30.02910 20.94220 5.614380
695 78.57140 35.71430 35.71430 31.18380 21.52980 11.75540
696 78.57140 35.71430 50.00000 33.03790 22.50480 22.07470
697 78.57140 35.71430 64.28570 35.75490 24.02860 36.99280
698 78.57140 35.71430 78.57140 39.49220 26.15020 56.65790
699 78.57140 35.71430 92.85710 44.58740 29.21630 83.37860
700 78.57140 50.00000 7.142860 32.84740 27.96270 3.558650
701 78.57140 50.00000 21.42860 33.51190 28.28130 6.742760
702 78.57140 50.00000 35.71430 34.73520 29.02730 12.86100
703 78.57140 50.00000 50.00000 36.64260 30.05610 23.31510
704 78.57140 50.00000 64.28570 39.50850 31.57660 38.45580
705 78.57140 50.00000 78.57140 42.97470 33.57140 57.84990
706 78.57140 50.00000 92.85710 48.05010 36.60690 84.29900
707 78.57140 64.28570 7.142860 37.66790 38.13590 5.049920
708 78.57140 64.28570 21.42860 38.44900 38.58440 8.256180
709 78.57140 64.28570 35.71430 39.45710 39.07110 14.41430
710 78.57140 64.28570 50.00000 41.39040 40.07060 24.80960
711 78.57140 64.28570 64.28570 44.30240 41.74890 39.82290
712 78.57140 64.28570 78.57140 47.73910 43.66860 59.48710
713 78.57140 64.28570 92.85710 52.66900 46.62540 85.66500
714 78.57140 78.57140 7.142860 43.89700 51.08530 6.876800
715 78.57140 78.57140 21.42860 44.50520 51.38000 10.09100
716 78.57140 78.57140 35.71430 45.64410 51.91500 16.27270
717 78.57140 78.57140 50.00000 47.66640 53.07360 26.74100
718 78.57140 78.57140 64.28570 50.39180 54.51550 41.63360
719 78.57140 78.57140 92.85710 58.84530 59.39460 87.88160
720 78.57140 92.85710 7.142860 52.52290 69.20300 9.450560
721 78.57140 92.85710 21.42860 53.05650 69.33910 12.66030
722 78.57140 92.85710 35.71430 54.38930 70.16280 18.88190
723 78.57140 92.85710 50.00000 56.28980 71.13920 29.41770
724 78.57140 92.85710 64.28570 58.96220 72.57950 44.06320
725 78.57140 92.85710 78.57140 62.79270 74.81610 64.40760
726 78.57140 92.85710 92.85710 67.39600 77.42790 90.03970
727 85.71430 0.000000 0.000000 31.70340 16.55350 0.958946
728 85.71430 0.000000 14.28570 32.07830 16.75100 2.544650
729 85.71430 0.000000 28.57140 32.91040 17.20020 7.261930
730 85.71430 0.000000 42.85710 34.32850 17.96040 15.19180
731 85.71430 0.000000 57.14290 36.89640 19.37000 28.75800
732 85.71430 0.000000 71.42860 40.27760 21.20810 45.98050
733 85.71430 0.000000 85.71430 44.38640 23.64080 69.17330
734 85.71430 0.000000 100.0000 49.98850 27.11060 98.87980
735 85.71430 14.28570 0.000000 32.13360 17.68660 1.141320
736 85.71430 14.28570 14.28570 32.45450 17.86050 2.769630
737 85.71430 14.28570 28.57140 33.42410 18.35890 7.545800
738 85.71430 14.28570 42.85710 34.96480 19.16750 15.46300
739 85.71430 14.28570 57.14290 37.49140 20.56230 29.18170
740 85.71430 14.28570 71.42860 40.77710 22.37820 46.26910
741 85.71430 14.28570 85.71430 44.88590 24.81090 69.46190
742 85.71430 14.28570 100.0000 50.80790 28.43900 99.84630
743 85.71430 28.57140 0.000000 33.60930 20.93930 1.642710
744 85.71430 28.57140 14.28570 34.12720 21.18070 3.280560
745 85.71430 28.57140 28.57140 34.99600 21.61330 8.063410
746 85.71430 28.57140 42.85710 36.54070 22.42900 16.04160
747 85.71430 28.57140 57.14290 39.08440 23.83550 29.90640
748 85.71430 28.57140 71.42860 42.04990 25.53890 46.58800
749 85.71430 28.57140 85.71430 46.73000 28.22610 70.45800
750 85.71430 28.57140 100.0000 52.06090 31.56910 99.89360
751 85.71430 42.85710 0.000000 36.29090 26.40420 2.459300
752 85.71430 42.85710 14.28570 36.80680 26.65050 4.117130
753 85.71430 42.85710 28.57140 37.66840 27.09500 8.939110
754 85.71430 42.85710 42.85710 38.99860 27.78560 16.91080
755 85.71430 42.85710 57.14290 41.61490 29.23860 30.52690
756 85.71430 42.85710 71.42860 44.83740 31.07620 47.88650
757 85.71430 42.85710 85.71430 48.98930 33.50230 70.80760
758 85.71430 42.85710 100.0000 54.91130 37.13040 101.1920
759 85.71430 57.14290 0.000000 40.68670 35.81230 3.862260
760 85.71430 57.14290 14.28570 41.08310 36.01070 5.549780
761 85.71430 57.14290 28.57140 41.97360 36.42610 10.32730
762 85.71430 57.14290 42.85710 43.63460 37.37180 18.32590
763 85.71430 57.14290 57.14290 46.17510 38.72600 32.29010
764 85.71430 57.14290 71.42860 49.11590 40.37650 48.97090
765 85.71430 57.14290 85.71430 53.64620 43.03700 72.43510
766 85.71430 57.14290 100.0000 59.20960 46.46130 102.5480
767 85.71430 71.42860 0.000000 46.08940 47.28460 5.506090
768 85.71430 71.42860 14.28570 46.61530 47.53120 7.210830
769 85.71430 71.42860 28.57140 47.54060 47.99970 12.03610
770 85.71430 71.42860 42.85710 49.15920 48.92200 20.13070
771 85.71430 71.42860 57.14290 51.49810 50.14370 33.67570
772 85.71430 71.42860 71.42860 54.81740 52.02850 50.89970
773 85.71430 71.42860 85.71430 58.93970 54.37950 74.09080
774 85.71430 71.42860 100.0000 64.57140 57.92450 103.5270
775 85.71430 85.71430 0.000000 53.63240 62.79880 7.682920
776 85.71430 85.71430 14.28570 53.78300 62.68470 9.382160
777 85.71430 85.71430 28.57140 54.77070 63.25950 14.26980
778 85.71430 85.71430 42.85710 56.43270 64.20520 22.27310
779 85.71430 85.71430 57.14290 59.02830 65.58320 36.20120
780 85.71430 85.71430 71.42860 61.80330 67.05010 52.74450
781 85.71430 85.71430 100.0000 72.04240 73.21370 106.5930
782 85.71430 100.0000 0.000000 62.93080 82.50910 10.43850
783 85.71430 100.0000 14.28570 63.63400 82.99180 12.22010
784 85.71430 100.0000 28.57140 64.46350 83.33100 17.12060
785 85.71430 100.0000 42.85710 66.04130 84.25200 25.02450
786 85.71430 100.0000 57.14290 68.57350 85.55380 39.06440
787 85.71430 100.0000 71.42860 71.52790 87.12260 55.74350
788 85.71430 100.0000 85.71430 75.95650 89.71360 79.61420
789 85.71430 100.0000 100.0000 81.19870 92.88960 108.5050
790 92.85710 7.142860 7.142860 38.38310 20.35820 1.705130
791 92.85710 7.142860 21.42860 38.95870 20.65830 4.806180
792 92.85710 7.142860 35.71430 40.35330 21.34800 10.92980
793 92.85710 7.142860 50.00000 42.19890 22.35100 21.37890
794 92.85710 7.142860 64.28570 44.94730 23.88430 36.49490
795 92.85710 7.142860 78.57140 48.38450 25.87830 55.75370
796 92.85710 7.142860 92.85710 53.37240 28.83690 82.20220
797 92.85710 21.42860 7.142860 39.34660 22.54330 2.048250
798 92.85710 21.42860 21.42860 40.11280 22.91930 5.179680
799 92.85710 21.42860 35.71430 41.16710 23.51150 11.32360
800 92.85710 21.42860 50.00000 43.10360 24.51060 21.73100
801 92.85710 21.42860 64.28570 46.00290 26.13630 36.79870
802 92.85710 21.42860 78.57140 49.44440 28.07830 56.19200
803 92.85710 21.42860 92.85710 54.42800 31.08880 82.50600
804 92.85710 35.71430 7.142860 41.44940 26.92200 2.721380
805 92.85710 35.71430 21.42860 42.17010 27.26440 5.874000
806 92.85710 35.71430 35.71430 43.41080 27.92890 12.00880
807 92.85710 35.71430 50.00000 45.38840 28.98190 22.49710
808 92.85710 35.71430 64.28570 48.04010 30.48160 37.40390
809 92.85710 35.71430 78.57140 51.47240 32.45330 56.93340
810 92.85710 35.71430 92.85710 56.71740 35.54600 84.06000
811 92.85710 50.00000 7.142860 44.95450 34.31390 3.839850
812 92.85710 50.00000 21.42860 45.64200 34.68530 7.016370
813 92.85710 50.00000 35.71430 46.75590 35.30160 13.14620
814 92.85710 50.00000 50.00000 48.78610 36.37840 23.58630
815 92.85710 50.00000 64.28570 51.55160 37.90370 38.73120
816 92.85710 50.00000 78.57140 54.98880 39.89770 57.99000
817 92.85710 50.00000 92.85710 60.14680 42.98780 84.71050
818 92.85710 64.28570 7.142860 49.71090 44.46300 5.325220
819 92.85710 64.28570 21.42860 50.46680 44.85860 8.527680
820 92.85710 64.28570 35.71430 51.48230 45.39770 14.60600
821 92.85710 64.28570 50.00000 53.55960 46.52800 25.15180
822 92.85710 64.28570 64.28570 56.20440 47.94530 39.96160
823 92.85710 64.28570 78.57140 60.16980 50.20030 60.16940
824 92.85710 64.28570 92.85710 64.75030 52.92360 85.93940
825 92.85710 78.57140 7.142860 55.91460 57.35950 7.147510
826 92.85710 78.57140 21.42860 56.52860 57.65440 10.38900
827 92.85710 78.57140 35.71430 57.66270 58.18920 16.54830
828 92.85710 78.57140 50.00000 59.77630 59.37280 27.14940
829 92.85710 78.57140 64.28570 62.23080 60.68790 41.77240
830 92.85710 78.57140 78.57140 66.13830 62.94110 61.70950
831 92.85710 78.57140 92.85710 70.88830 65.72170 88.15700
832 92.85710 92.85710 7.142860 64.66310 75.52520 9.706790
833 92.85710 92.85710 21.42860 65.39030 75.95000 12.95490
834 92.85710 92.85710 35.71430 66.48630 76.46150 19.22990
835 92.85710 92.85710 50.00000 68.19170 77.33560 29.55640
836 92.85710 92.85710 64.28570 71.22910 79.09190 44.74670
837 92.85710 92.85710 78.57140 74.48010 80.79740 64.00180
838 100.0000 0.000000 0.000000 45.55440 23.73500 1.248530
839 100.0000 0.000000 14.28570 45.73850 23.86580 2.857970
840 100.0000 0.000000 28.57140 46.63090 24.33830 7.559060
841 100.0000 0.000000 42.85710 48.06050 25.08780 15.47620
842 100.0000 0.000000 57.14290 50.84140 26.59490 29.30330
843 100.0000 0.000000 71.42860 53.74840 28.22220 46.11960
844 100.0000 0.000000 85.71430 58.03650 30.75680 69.44820
845 100.0000 0.000000 100.0000 63.96280 34.33290 99.96710
846 100.0000 14.28570 0.000000 45.82650 24.84520 1.436890
847 100.0000 14.28570 14.28570 46.21630 25.04190 3.084660
848 100.0000 14.28570 28.57140 47.12720 25.51110 7.849380
849 100.0000 14.28570 42.85710 48.61730 26.28670 15.76780
850 100.0000 14.28570 57.14290 51.28730 27.71130 29.45580
851 100.0000 14.28570 71.42860 54.30150 29.44610 46.54430
852 100.0000 14.28570 85.71430 58.59880 31.95100 69.73660
853 100.0000 14.28570 100.0000 64.40930 35.52360 99.71430
854 100.0000 28.57140 0.000000 47.43730 28.14010 1.944790
855 100.0000 28.57140 14.28570 47.97660 28.43920 3.597770
856 100.0000 28.57140 28.57140 48.89930 28.90770 8.411230
857 100.0000 28.57140 42.85710 50.15780 29.57400 16.34160
858 100.0000 28.57140 57.14290 52.94340 31.12860 30.04700
859 100.0000 28.57140 71.42860 55.90830 32.75760 47.13400
860 100.0000 28.57140 85.71430 60.23950 35.28570 70.19090
861 100.0000 28.57140 100.0000 65.93910 38.81840 100.7110
862 100.0000 42.85710 0.000000 49.90820 33.54920 2.760040
863 100.0000 42.85710 14.28570 50.57760 33.89660 4.433510
864 100.0000 42.85710 28.57140 51.34110 34.26380 9.205080
865 100.0000 42.85710 42.85710 52.88580 35.07950 17.18290
866 100.0000 42.85710 57.14290 55.56080 36.53430 31.07350
867 100.0000 42.85710 71.42860 58.43870 38.16070 47.75450
868 100.0000 42.85710 85.71430 62.93520 40.79800 71.35420
869 100.0000 42.85710 100.0000 68.35310 44.14370 101.1960
870 100.0000 57.14290 0.000000 54.39140 43.03430 4.163650
871 100.0000 57.14290 14.28570 54.88670 43.22780 5.839860
872 100.0000 57.14290 28.57140 55.90210 43.77340 10.67800
873 100.0000 57.14290 42.85710 57.12250 44.38640 18.54480
874 100.0000 57.14290 57.14290 59.73340 45.81710 32.42980
875 100.0000 57.14290 71.42860 62.79070 47.54540 49.24650
876 100.0000 57.14290 85.71430 67.46640 50.28460 72.98200
877 100.0000 57.14290 100.0000 72.59830 53.49520 102.0100
878 100.0000 71.42860 0.000000 60.01040 54.63170 5.821910
879 100.0000 71.42860 14.28570 60.59920 54.90230 7.526830
880 100.0000 71.42860 28.57140 61.40710 55.32300 12.39140
881 100.0000 71.42860 42.85710 62.74060 56.01380 20.37850
882 100.0000 71.42860 57.14290 65.23570 57.33660 33.95120
883 100.0000 71.42860 71.42860 68.52110 59.19830 51.31070
884 100.0000 71.42860 85.71430 72.58540 61.54750 74.23110
885 100.0000 71.42860 100.0000 78.24610 65.09340 103.8030
886 100.0000 85.71430 0.000000 67.20070 69.83810 7.984230
887 100.0000 85.71430 14.28570 67.58050 69.98380 9.708530
888 100.0000 85.71430 28.57140 68.60180 70.52950 14.57400
889 100.0000 85.71430 42.85710 69.96330 71.19110 22.51270
890 100.0000 85.71430 57.14290 72.79980 72.79940 36.34120
891 100.0000 85.71430 71.42860 75.56990 74.24390 53.15530
892 100.0000 85.71430 85.71430 79.86720 76.74880 76.34770
893 100.0000 85.71430 100.0000 85.80470 80.45950 106.8690
894 100.0000 100.0000 0.000000 76.71300 89.67340 10.74320
895 100.0000 100.0000 14.28570 77.14920 89.92510 12.50210
896 100.0000 100.0000 28.57140 78.29160 90.60100 17.41060
897 100.0000 100.0000 42.85710 79.54730 91.13290 25.37790
898 100.0000 100.0000 57.14290 82.33580 92.79970 39.34060
899 100.0000 100.0000 71.42860 85.15330 94.18570 56.01760
900 100.0000 100.0000 85.71430 89.78660 97.00580 79.61950
901 0.000000 12.54900 100.0000 18.55500 11.44990 98.61390
902 12.54900 0.000000 100.0000 18.86720 10.90490 98.19380
903 0.000000 100.0000 12.54900 31.82600 66.12480 11.04830
904 12.54900 100.0000 0.000000 32.34560 66.64500 9.672510
905 100.0000 0.000000 12.54900 45.76420 23.86050 2.515260
906 100.0000 12.54900 0.000000 45.99030 24.71610 1.400260
907 0.000000 25.09800 100.0000 19.76630 13.95830 99.19220
908 25.09800 0.000000 100.0000 20.60740 11.83160 98.19460
909 0.000000 100.0000 25.09800 32.55810 66.60970 14.67760
910 25.09800 100.0000 0.000000 33.88700 67.27550 9.708700
911 100.0000 0.000000 25.09800 46.24540 24.14160 5.930290
912 100.0000 25.09800 0.000000 47.20490 27.36520 1.809260
END_DATA
CAL    

ORIGINATOR "Argyll dispread"
CREATED "Fri Sep 27 20:32:02 2013"
KEYWORD "DEVICE_CLASS"
DEVICE_CLASS "DISPLAY"
DESCRIPTOR "Argyll Device Calibration State"

BEGIN_ARGYLL_DISPCAL_ARGS
-v2 -qm -w0.312699,0.329001 -b140.0 -gs -f1.0 -k0 -A4.0 -d2 -c1 -yn -P0.489417989418,0.487373737374,1.43661971831 -X "CCFLFamily_07Feb11.ccss"
END_ARGYLL_DISPCAL_ARGS

KEYWORD "COLOR_REP"
COLOR_REP "RGB"

KEYWORD "RGB_I"
NUMBER_OF_FIELDS 4
BEGIN_DATA_FORMAT
RGB_I RGB_R RGB_G RGB_B
END_DATA_FORMAT

NUMBER_OF_SETS 256
BEGIN_DATA
0.00000000 0.01003710 0.01088170 0.01018210
0.00392157 0.01622200 0.01735230 0.01582640
0.00784314 0.02239720 0.02379680 0.02147240
0.01176470 0.02856290 0.03021540 0.02712020
0.01568630 0.03471920 0.03660820 0.03276960
0.01960780 0.04086590 0.04297540 0.03842070
0.02352940 0.04699950 0.04932940 0.04407370
0.02745100 0.05309330 0.05569740 0.04973080
0.03137250 0.05911770 0.06201850 0.05533510
0.03529410 0.06499370 0.06819600 0.06079880
0.03921570 0.07065780 0.07415180 0.06607930
0.04313730 0.07609810 0.07986850 0.07115590
0.04705880 0.08132440 0.08532540 0.07604310
0.05098040 0.08635810 0.09051120 0.08074950
0.05490200 0.09121980 0.09545080 0.08527310
0.05882350 0.09592880 0.10018800 0.08964870
0.06274510 0.10050500 0.10475600 0.09392410
0.06666670 0.10497700 0.10918500 0.09813440
0.07058820 0.10937800 0.11349900 0.10229800
0.07450980 0.11372700 0.11772400 0.10643500
0.07843140 0.11803900 0.12188700 0.11056400
0.08235290 0.12232500 0.12602700 0.11469400
0.08627450 0.12660100 0.13016000 0.11883500
0.09019610 0.13087100 0.13429200 0.12298500
0.09411760 0.13513500 0.13842900 0.12714700
0.09803920 0.13939500 0.14256800 0.13130500
0.10196100 0.14365000 0.14670400 0.13543700
0.10588200 0.14790200 0.15082000 0.13951600
0.10980400 0.15214100 0.15490900 0.14353400
0.11372500 0.15635300 0.15896500 0.14749100
0.11764700 0.16053100 0.16298000 0.15137400
0.12156900 0.16466500 0.16694400 0.15518500
0.12549000 0.16874100 0.17084900 0.15892500
0.12941200 0.17274700 0.17468800 0.16260200
0.13333300 0.17668400 0.17846000 0.16621100
0.13725500 0.18053700 0.18215100 0.16974400
0.14117600 0.18430300 0.18577100 0.17320900
0.14509800 0.18798700 0.18932000 0.17661300
0.14902000 0.19158800 0.19280300 0.17996400
0.15294100 0.19511500 0.19623300 0.18326600
0.15686300 0.19857000 0.19961700 0.18652600
0.16078400 0.20196200 0.20296400 0.18974900
0.16470600 0.20529900 0.20628000 0.19293800
0.16862700 0.20858400 0.20957100 0.19610200
0.17254900 0.21182700 0.21285000 0.19924300
0.17647100 0.21503500 0.21611600 0.20236900
0.18039200 0.21821100 0.21936400 0.20548200
0.18431400 0.22136100 0.22260000 0.20858300
0.18823500 0.22449300 0.22581900 0.21166000
0.19215700 0.22761100 0.22901700 0.21470400
0.19607800 0.23071200 0.23219200 0.21771400
0.20000000 0.23380300 0.23534600 0.22068600
0.20392200 0.23688200 0.23847500 0.22362300
0.20784300 0.23994200 0.24157400 0.22653300
0.21176500 0.24298300 0.24464900 0.22941400
0.21568600 0.24600500 0.24770600 0.23226900
0.21960800 0.24900200 0.25073900 0.23510900
0.22352900 0.25197000 0.25375100 0.23793000
0.22745100 0.25490800 0.25674900 0.24073000
0.23137300 0.25782400 0.25974700 0.24351800
0.23529400 0.26072600 0.26274200 0.24629400
0.23921600 0.26361200 0.26573400 0.24905300
0.24313700 0.26648100 0.26872200 0.25179900
0.24705900 0.26933400 0.27171200 0.25453500
0.25098000 0.27217200 0.27469500 0.25727700
0.25490200 0.27498800 0.27767300 0.26003300
0.25882400 0.27778600 0.28064500 0.26280500
0.26274500 0.28056800 0.28361600 0.26559200
0.26666700 0.28334400 0.28658400 0.26839400
0.27058800 0.28611900 0.28953700 0.27121200
0.27451000 0.28888700 0.29247100 0.27404200
0.27843100 0.29164500 0.29539400 0.27688500
0.28235300 0.29439600 0.29831300 0.27974400
0.28627500 0.29715200 0.30122800 0.28262000
0.29019600 0.29991200 0.30413200 0.28552000
0.29411800 0.30267600 0.30702200 0.28843700
0.29803900 0.30544400 0.30990300 0.29135900
0.30196100 0.30821800 0.31277700 0.29428500
0.30588200 0.31100300 0.31564200 0.29722100
0.30980400 0.31379900 0.31849300 0.30017000
0.31372500 0.31660200 0.32133400 0.30312400
0.31764700 0.31940900 0.32416800 0.30608900
0.32156900 0.32221700 0.32699900 0.30906800
0.32549000 0.32503000 0.32982300 0.31206600
0.32941200 0.32784800 0.33265100 0.31508000
0.33333300 0.33067400 0.33549600 0.31810200
0.33725500 0.33352000 0.33835900 0.32112900
0.34117600 0.33638600 0.34123900 0.32416500
0.34509800 0.33927400 0.34413800 0.32721300
0.34902000 0.34218300 0.34705600 0.33027700
0.35294100 0.34511200 0.34999300 0.33336800
0.35686300 0.34806000 0.35295000 0.33648900
0.36078400 0.35102800 0.35592400 0.33963800
0.36470600 0.35401600 0.35891800 0.34281200
0.36862700 0.35703000 0.36193000 0.34600000
0.37254900 0.36006800 0.36496300 0.34920000
0.37647100 0.36312600 0.36801100 0.35241400
0.38039200 0.36620700 0.37107400 0.35564000
0.38431400 0.36931400 0.37416100 0.35888200
0.38823500 0.37245000 0.37727600 0.36213800
0.39215700 0.37561700 0.38041100 0.36540600
0.39607800 0.37880600 0.38356800 0.36869100
0.40000000 0.38201500 0.38674900 0.37198700
0.40392200 0.38524600 0.38996500 0.37530800
0.40784300 0.38849900 0.39322300 0.37865500
0.41176500 0.39178200 0.39652100 0.38202800
0.41568600 0.39510100 0.39984600 0.38541500
0.41960800 0.39844900 0.40319400 0.38880900
0.42352900 0.40181600 0.40656200 0.39222100
0.42745100 0.40519900 0.40994600 0.39566800
0.43137300 0.40859600 0.41334600 0.39914500
0.43529400 0.41200700 0.41676200 0.40263700
0.43921600 0.41543200 0.42018100 0.40613800
0.44313700 0.41886200 0.42359500 0.40965200
0.44705900 0.42229300 0.42701400 0.41317900
0.45098000 0.42573200 0.43045000 0.41671300
0.45490200 0.42918500 0.43390700 0.42023900
0.45882400 0.43266300 0.43738400 0.42376400
0.46274500 0.43616600 0.44088200 0.42729900
0.46666700 0.43968300 0.44440800 0.43085400
0.47058800 0.44321100 0.44796500 0.43443100
0.47451000 0.44675200 0.45155200 0.43803000
0.47843100 0.45030400 0.45517500 0.44165500
0.48235300 0.45387300 0.45883300 0.44531500
0.48627500 0.45745700 0.46252600 0.44901400
0.49019600 0.46105000 0.46625900 0.45274500
0.49411800 0.46466600 0.47002400 0.45652900
0.49803900 0.46830500 0.47381900 0.46037000
0.50196100 0.47196100 0.47763300 0.46427900
0.50588200 0.47562300 0.48147100 0.46825500
0.50980400 0.47929200 0.48533300 0.47227300
0.51372500 0.48295600 0.48921900 0.47630600
0.51764700 0.48662200 0.49313600 0.48033200
0.52156900 0.49029000 0.49709400 0.48434300
0.52549000 0.49396900 0.50109400 0.48834700
0.52941200 0.49767500 0.50513500 0.49235200
0.53333300 0.50140700 0.50918300 0.49636200
0.53725500 0.50516700 0.51320500 0.50038700
0.54117600 0.50894700 0.51718200 0.50442500
0.54509800 0.51273400 0.52111300 0.50847700
0.54902000 0.51650700 0.52500200 0.51252900
0.55294100 0.52026700 0.52885100 0.51655600
0.55686300 0.52401300 0.53265600 0.52056000
0.56078400 0.52774200 0.53642300 0.52454200
0.56470600 0.53145000 0.54014500 0.52849800
0.56862700 0.53514000 0.54382500 0.53242000
0.57254900 0.53881700 0.54746500 0.53630700
0.57647100 0.54248800 0.55106600 0.54017300
0.58039200 0.54615200 0.55464100 0.54402200
0.58431400 0.54981100 0.55818500 0.54786400
0.58823500 0.55346700 0.56170100 0.55169700
0.59215700 0.55712400 0.56521500 0.55553600
0.59607800 0.56077800 0.56873100 0.55938600
0.60000000 0.56444300 0.57224900 0.56325000
0.60392200 0.56812300 0.57577000 0.56714000
0.60784300 0.57181800 0.57931200 0.57107500
0.61176500 0.57552200 0.58288000 0.57505800
0.61568600 0.57924900 0.58646400 0.57909700
0.61960800 0.58301100 0.59007200 0.58320700
0.62352900 0.58680100 0.59371700 0.58738200
0.62745100 0.59061600 0.59740100 0.59162800
0.63137300 0.59445500 0.60111700 0.59595500
0.63529400 0.59831200 0.60487300 0.60034000
0.63921600 0.60217500 0.60868700 0.60478200
0.64313700 0.60605100 0.61255800 0.60925800
0.64705900 0.60995700 0.61649000 0.61374600
0.65098000 0.61389100 0.62046600 0.61823500
0.65490200 0.61784900 0.62447700 0.62270800
0.65882400 0.62181900 0.62850600 0.62713700
0.66274500 0.62578600 0.63255500 0.63150200
0.66666700 0.62974300 0.63662600 0.63577700
0.67058800 0.63369100 0.64074300 0.63996200
0.67451000 0.63763700 0.64491800 0.64408300
0.67843100 0.64159400 0.64915200 0.64816500
0.68235300 0.64558100 0.65343000 0.65223400
0.68627500 0.64961000 0.65773000 0.65630300
0.69019600 0.65368600 0.66204900 0.66037100
0.69411800 0.65780300 0.66639200 0.66443400
0.69803900 0.66195000 0.67076200 0.66849200
0.70196100 0.66612600 0.67515800 0.67256000
0.70588200 0.67033200 0.67955400 0.67668700
0.70980400 0.67459200 0.68394900 0.68086100
0.71372500 0.67889100 0.68832800 0.68505700
0.71764700 0.68322100 0.69266600 0.68923600
0.72156900 0.68757000 0.69695800 0.69337200
0.72549000 0.69190600 0.70121200 0.69747500
0.72941200 0.69621800 0.70543900 0.70156800
0.73333300 0.70051700 0.70965500 0.70566300
0.73725500 0.70481000 0.71386700 0.70976600
0.74117600 0.70911100 0.71807100 0.71386100
0.74509800 0.71342100 0.72226300 0.71792900
0.74902000 0.71773700 0.72643800 0.72197000
0.75294100 0.72204400 0.73058600 0.72598800
0.75686300 0.72633400 0.73472600 0.72998800
0.76078400 0.73059300 0.73885400 0.73397500
0.76470600 0.73482500 0.74297300 0.73796100
0.76862700 0.73903400 0.74708000 0.74192500
0.77254900 0.74322700 0.75118600 0.74587000
0.77647100 0.74740900 0.75531300 0.74979700
0.78039200 0.75158600 0.75945700 0.75372400
0.78431400 0.75577900 0.76361400 0.75768300
0.78823500 0.75998400 0.76779000 0.76167600
0.79215700 0.76420200 0.77198300 0.76569700
0.79607800 0.76844700 0.77618700 0.76974800
0.80000000 0.77272500 0.78039300 0.77384400
0.80392200 0.77702100 0.78463900 0.77797100
0.80784300 0.78131900 0.78893600 0.78211000
0.81176500 0.78563600 0.79326700 0.78626600
0.81568600 0.78998200 0.79761400 0.79045100
0.81960800 0.79436200 0.80198000 0.79467900
0.82352900 0.79875600 0.80635600 0.79892900
0.82745100 0.80316100 0.81074100 0.80319400
0.83137300 0.80757600 0.81512200 0.80747700
0.83529400 0.81199700 0.81949400 0.81177600
0.83921600 0.81641100 0.82386600 0.81607900
0.84313700 0.82081300 0.82824900 0.82038700
0.84705900 0.82522300 0.83263900 0.82471500
0.85098000 0.82964100 0.83702000 0.82906000
0.85490200 0.83406600 0.84137400 0.83339800
0.85882400 0.83848800 0.84570800 0.83773000
0.86274500 0.84288900 0.85003500 0.84206700
0.86666700 0.84727700 0.85434800 0.84640000
0.87058800 0.85166800 0.85864900 0.85073500
0.87451000 0.85605600 0.86296100 0.85509700
0.87843100 0.86043700 0.86728300 0.85948500
0.88235300 0.86484100 0.87159500 0.86391400
0.88627500 0.86925300 0.87590000 0.86838400
0.89019600 0.87365900 0.88020200 0.87286000
0.89411800 0.87806400 0.88450100 0.87733300
0.89803900 0.88247100 0.88878900 0.88178000
0.90196100 0.88688400 0.89307200 0.88620500
0.90588200 0.89130900 0.89734600 0.89063100
0.90980400 0.89575400 0.90159500 0.89507600
0.91372500 0.90020300 0.90583000 0.89953800
0.91764700 0.90465800 0.91004000 0.90400400
0.92156900 0.90912100 0.91424200 0.90848100
0.92549000 0.91358500 0.91843700 0.91295700
0.92941200 0.91805400 0.92264000 0.91745300
0.93333300 0.92253100 0.92684400 0.92197600
0.93725500 0.92701200 0.93104200 0.92651800
0.94117600 0.93148900 0.93523100 0.93105000
0.94509800 0.93597000 0.93941500 0.93558200
0.94902000 0.94046400 0.94360100 0.94012800
0.95294100 0.94497000 0.94778100 0.94469800
0.95686300 0.94947900 0.95195500 0.94927200
0.96078400 0.95399700 0.95612600 0.95384700
0.96470600 0.95852400 0.96029100 0.95843700
0.96862700 0.96305700 0.96444900 0.96303200
0.97254900 0.96759800 0.96860000 0.96763700
0.97647100 0.97214400 0.97274700 0.97225100
0.98039200 0.97669400 0.97689000 0.97687700
0.98431400 0.98124800 0.98102900 0.98151500
0.98823500 0.98580600 0.98516400 0.98616500
0.99215700 0.99036900 0.98929500 0.99082700
0.99607800 0.99493500 0.99342100 0.99550200
1.00000000 0.99950600 0.99754400 1.00000000
END_DATA